#     FILENAME=Skynet_59284_M31_5kpc_MAtkinson_52424_1408.A.onoff.cal.txt
#     BASENAME=Skynet_59284_M31_5kpc_MAtkinson_52424_1408
#      CONTROL=SKYNET
#     PROJCODE=Skynet_59284_M31_5kpc_MAtkinson_52424
#     DATAROOT=/raid/scratch/cyborg/SkynetData
#      DATADIR=/raid/scratch/cyborg
#     DATADIR2=/raid/scratch/cyborg/SkynetData/Skynet_59284_M31_5kpc_MAtkinson
#     SCANNAME=2019_06_26_10
#     SRC_NAME=M31_5kpc_MAtkinson
#     OBSERVER=unioncollege_21317
#     DATE_OBS=2021-03-11T12:44:59.260
#        OBSID=52424
#      SCANNUM=1408
#          MJD=59284.5312414
#          UTC=45899
#     SCANTYPE=onoff
#     DATAMODE=HIRES
#     RECEIVER=Rx1_2
#      OBSFREQ=1395.0000
# Actual_FREQ1=1420.4000,
# Actual_FREQ2=1420.4000
#    LO1Tuning=6870.4000
#     RFFILTER=1355_1435
#        OBSBW=-15.6250
#     EFFBANDW=15.6250
#        NCHAN=1024
#    STARTCHAN=51
#     STOPCHAN=972
#         TINT=0.3000
#         TBIN=0.00419430
#       ACCLEN=2048 
#     DURATION=166.80
#     EXPOSURE=125.08
#        FOCUS=37.071
#       RA,DEC=00:41:49.84, 40:59:36.02
#      RA(deg)=9.05646
#     DEC(deg)=40.99308
#   WIDTH(deg)=2.0919x0.0283
#    AZIM(deg)=55.9036
#    ELEV(deg)=25.1927
#     COORDREF=RA_DEC_
#         HREF=10.3863
#         VREF=40.9933
#      RADESYS=FK5
#       OFFSYS=RADEC
#      EQUINOX=2000.00
#     IFATTENS=21.00, 14.00
#   BALANCELEV=1.200 
#   POWER_XLYR=[1.09, 1.16] 
#       VELDEF=RADI-OBS 
#     VELOCITY=0.000 
#         NPOL=2 
#      POLMODE=Linear 
#      POLTYPE=XXYY 
#      WARNING=None 
#     NOISECAL=HI 
#       PRECAL=2 
#      POSTCAL=2 
#     CRYOTEMP=15 
#      BOXTEMP=26 
#         TSYS=XX1:33.56, YY1:40.94
#         TSYS=XX2:33.56, YY2:40.93
#         TCAL=XX1:9.17, YY1:10.07
#         TCAL=XX2:9.17, YY2:10.07
# Calibrated spectra: Tsys*(ON-OFF)/OFF 
#                
#                
#Freq1(MHz)         XX1          YY1   Freq2(MHz)       XX2         YY2 
   1427.43430       0.7525       0.6420    1427.43430       0.7525       0.6420
   1427.41904       0.7784       0.6166    1427.41904       0.7784       0.6166
   1427.40378       0.6990       0.6443    1427.40378       0.6990       0.6442
   1427.38853       0.7519       0.6365    1427.38853       0.7519       0.6365
   1427.37327       0.7730       0.4956    1427.37327       0.7730       0.4956
   1427.35801       0.8050       0.5585    1427.35801       0.8050       0.5584
   1427.34275       0.7103       0.5719    1427.34275       0.7103       0.5719
   1427.32749       0.7712       0.6263    1427.32749       0.7712       0.6263
   1427.31223       0.6899       0.6691    1427.31223       0.6899       0.6691
   1427.29697       0.7218       0.6091    1427.29697       0.7218       0.6090
   1427.28171       0.7248       0.6935    1427.28171       0.7248       0.6935
   1427.26646       0.7739       0.6450    1427.26646       0.7739       0.6450
   1427.25120       0.7142       0.7651    1427.25120       0.7142       0.7650
   1427.23594       0.7649       0.7695    1427.23594       0.7649       0.7695
   1427.22068       0.8549       0.6797    1427.22068       0.8549       0.6797
   1427.20542       0.7095       0.6287    1427.20542       0.7095       0.6286
   1427.19016       0.6352       0.6240    1427.19016       0.6352       0.6240
   1427.17490       0.7180       0.6269    1427.17490       0.7180       0.6269
   1427.15964       0.7408       0.6819    1427.15964       0.7408       0.6819
   1427.14438       0.8312       0.5950    1427.14438       0.8312       0.5950
   1427.12913       0.6852       0.6974    1427.12913       0.6851       0.6974
   1427.11387       0.6706       0.6703    1427.11387       0.6706       0.6702
   1427.09861       0.8016       0.6380    1427.09861       0.8016       0.6379
   1427.08335       0.7094       0.5807    1427.08335       0.7094       0.5807
   1427.06809       0.6871       0.6356    1427.06809       0.6871       0.6355
   1427.05283       0.6977       0.6937    1427.05283       0.6977       0.6936
   1427.03757       0.6963       0.6828    1427.03757       0.6963       0.6827
   1427.02231       0.6503       0.6504    1427.02231       0.6502       0.6504
   1427.00706       0.7185       0.6170    1427.00706       0.7185       0.6170
   1426.99180       0.7499       0.5619    1426.99180       0.7499       0.5618
   1426.97654       0.7735       0.6542    1426.97654       0.7735       0.6541
   1426.96128       0.7828       0.6472    1426.96128       0.7828       0.6472
   1426.94602       0.6705       0.6446    1426.94602       0.6705       0.6445
   1426.93076       0.7006       0.6906    1426.93076       0.7006       0.6905
   1426.91550       0.7932       0.6246    1426.91550       0.7932       0.6245
   1426.90024       0.7508       0.5619    1426.90024       0.7508       0.5619
   1426.88499       0.7323       0.5488    1426.88499       0.7323       0.5487
   1426.86973       0.7719       0.5666    1426.86973       0.7719       0.5666
   1426.85447       0.7737       0.5791    1426.85447       0.7737       0.5791
   1426.83921       0.7895       0.6296    1426.83921       0.7895       0.6295
   1426.82395       0.7527       0.7176    1426.82395       0.7526       0.7176
   1426.80869       0.7255       0.5948    1426.80869       0.7255       0.5948
   1426.79343       0.7777       0.6206    1426.79343       0.7777       0.6206
   1426.77817       0.8337       0.5945    1426.77817       0.8337       0.5945
   1426.76292       0.6497       0.7131    1426.76292       0.6497       0.7131
   1426.74766       0.7616       0.5500    1426.74766       0.7616       0.5500
   1426.73240       0.7490       0.5683    1426.73240       0.7490       0.5683
   1426.71714       0.6785       0.7099    1426.71714       0.6785       0.7098
   1426.70188       0.7197       0.5925    1426.70188       0.7197       0.5924
   1426.68662       0.8209       0.5572    1426.68662       0.8209       0.5572
   1426.67136       0.7175       0.5955    1426.67136       0.7175       0.5954
   1426.65610       0.7976       0.6205    1426.65610       0.7976       0.6205
   1426.64084       0.6865       0.7185    1426.64084       0.6865       0.7184
   1426.62559       0.7347       0.4591    1426.62559       0.7347       0.4591
   1426.61033       0.7534       0.6940    1426.61033       0.7534       0.6939
   1426.59507       0.6821       0.6445    1426.59507       0.6821       0.6444
   1426.57981       0.7711       0.6481    1426.57981       0.7711       0.6481
   1426.56455       0.6216       0.5461    1426.56455       0.6216       0.5460
   1426.54929       0.7508       0.6137    1426.54929       0.7507       0.6136
   1426.53403       0.8743       0.5781    1426.53403       0.8742       0.5781
   1426.51877       0.7102       0.5117    1426.51877       0.7102       0.5117
   1426.50352       0.8568       0.6385    1426.50352       0.8568       0.6384
   1426.48826       0.8114       0.6087    1426.48826       0.8114       0.6086
   1426.47300       0.8374       0.6179    1426.47300       0.8374       0.6178
   1426.45774       0.7607       0.6329    1426.45774       0.7607       0.6329
   1426.44248       0.7816       0.6121    1426.44248       0.7816       0.6121
   1426.42722       0.8001       0.6042    1426.42722       0.8001       0.6042
   1426.41196       0.8870       0.6592    1426.41196       0.8870       0.6592
   1426.39670       0.7283       0.7269    1426.39670       0.7283       0.7268
   1426.38145       0.8169       0.7452    1426.38145       0.8169       0.7451
   1426.36619       0.7507       0.6221    1426.36619       0.7507       0.6221
   1426.35093       0.7526       0.6193    1426.35093       0.7526       0.6193
   1426.33567       0.7397       0.5987    1426.33567       0.7397       0.5987
   1426.32041       0.7192       0.6556    1426.32041       0.7192       0.6556
   1426.30515       0.7614       0.5862    1426.30515       0.7614       0.5861
   1426.28989       0.8046       0.5626    1426.28989       0.8046       0.5625
   1426.27463       0.6700       0.6272    1426.27463       0.6700       0.6271
   1426.25937       0.7391       0.6682    1426.25937       0.7391       0.6681
   1426.24412       0.8583       0.6249    1426.24412       0.8582       0.6248
   1426.22886       0.7002       0.6055    1426.22886       0.7002       0.6054
   1426.21360       0.7304       0.4820    1426.21360       0.7304       0.4819
   1426.19834       0.6859       0.6459    1426.19834       0.6859       0.6459
   1426.18308       0.7735       0.7323    1426.18308       0.7735       0.7322
   1426.16782       0.8035       0.6011    1426.16782       0.8034       0.6010
   1426.15256       0.8262       0.6695    1426.15256       0.8262       0.6694
   1426.13730       0.6523       0.6983    1426.13730       0.6522       0.6982
   1426.12205       0.7820       0.6931    1426.12205       0.7820       0.6930
   1426.10679       0.6832       0.6061    1426.10679       0.6832       0.6061
   1426.09153       0.8233       0.6138    1426.09153       0.8233       0.6138
   1426.07627       0.7563       0.7482    1426.07627       0.7563       0.7482
   1426.06101       0.7838       0.6487    1426.06101       0.7838       0.6486
   1426.04575       0.7043       0.6949    1426.04575       0.7043       0.6949
   1426.03049       0.7734       0.6272    1426.03049       0.7734       0.6271
   1426.01523       0.7984       0.6027    1426.01523       0.7984       0.6026
   1425.99998       0.7274       0.7291    1425.99998       0.7274       0.7290
   1425.98472       0.7357       0.6454    1425.98472       0.7357       0.6454
   1425.96946       0.7410       0.5130    1425.96946       0.7409       0.5129
   1425.95420       0.8193       0.6991    1425.95420       0.8193       0.6990
   1425.93894       0.7609       0.6953    1425.93894       0.7608       0.6953
   1425.92368       0.7847       0.6285    1425.92368       0.7847       0.6284
   1425.90842       0.7122       0.5549    1425.90842       0.7122       0.5549
   1425.89316       0.8139       0.6024    1425.89316       0.8139       0.6024
   1425.87791       0.8358       0.6742    1425.87791       0.8358       0.6741
   1425.86265       0.8526       0.6546    1425.86265       0.8526       0.6545
   1425.84739       0.6716       0.7123    1425.84739       0.6716       0.7123
   1425.83213       0.8938       0.7017    1425.83213       0.8938       0.7017
   1425.81687       0.7433       0.6110    1425.81687       0.7433       0.6109
   1425.80161       0.7873       0.6093    1425.80161       0.7873       0.6093
   1425.78635       0.7982       0.5990    1425.78635       0.7982       0.5990
   1425.77109       0.8343       0.5608    1425.77109       0.8343       0.5607
   1425.75583       0.8368       0.5923    1425.75583       0.8368       0.5923
   1425.74058       0.7244       0.6371    1425.74058       0.7244       0.6371
   1425.72532       0.8187       0.6963    1425.72532       0.8186       0.6963
   1425.71006       0.8114       0.5214    1425.71006       0.8114       0.5214
   1425.69480       0.7623       0.6912    1425.69480       0.7623       0.6911
   1425.67954       0.8067       0.6548    1425.67954       0.8067       0.6547
   1425.66428       0.8268       0.6643    1425.66428       0.8268       0.6642
   1425.64902       0.8781       0.5801    1425.64902       0.8781       0.5800
   1425.63376       0.8355       0.6027    1425.63376       0.8355       0.6027
   1425.61851       0.7486       0.6540    1425.61851       0.7486       0.6540
   1425.60325       0.7476       0.7024    1425.60325       0.7476       0.7023
   1425.58799       0.8038       0.6216    1425.58799       0.8038       0.6216
   1425.57273       0.8078       0.5961    1425.57273       0.8078       0.5960
   1425.55747       0.8391       0.5547    1425.55747       0.8391       0.5547
   1425.54221       0.7081       0.5698    1425.54221       0.7081       0.5698
   1425.52695       0.7571       0.6245    1425.52695       0.7571       0.6244
   1425.51169       0.8256       0.5451    1425.51169       0.8256       0.5450
   1425.49644       0.6931       0.6546    1425.49644       0.6931       0.6546
   1425.48118       0.7738       0.6566    1425.48118       0.7738       0.6566
   1425.46592       0.8106       0.5724    1425.46592       0.8106       0.5724
   1425.45066       0.8369       0.5716    1425.45066       0.8369       0.5716
   1425.43540       0.7778       0.6966    1425.43540       0.7778       0.6965
   1425.42014       0.8607       0.6630    1425.42014       0.8607       0.6630
   1425.40488       0.8199       0.6847    1425.40488       0.8199       0.6846
   1425.38962       0.7298       0.5901    1425.38962       0.7298       0.5900
   1425.37437       0.9122       0.6179    1425.37437       0.9122       0.6179
   1425.35911       0.7923       0.5679    1425.35911       0.7923       0.5678
   1425.34385       0.8503       0.6645    1425.34385       0.8503       0.6645
   1425.32859       0.7629       0.5492    1425.32859       0.7629       0.5491
   1425.31333       0.7462       0.6777    1425.31333       0.7462       0.6777
   1425.29807       0.8112       0.6419    1425.29807       0.8112       0.6418
   1425.28281       0.8303       0.7105    1425.28281       0.8303       0.7105
   1425.26755       0.8388       0.6134    1425.26755       0.8388       0.6134
   1425.25229       0.8207       0.6587    1425.25229       0.8207       0.6587
   1425.23704       0.7661       0.7054    1425.23704       0.7661       0.7053
   1425.22178       0.8090       0.5731    1425.22178       0.8089       0.5731
   1425.20652       0.8084       0.6560    1425.20652       0.8084       0.6559
   1425.19126       0.7931       0.7868    1425.19126       0.7931       0.7868
   1425.17600       0.8061       0.6628    1425.17600       0.8061       0.6627
   1425.16074       0.7734       0.6381    1425.16074       0.7734       0.6381
   1425.14548       0.7690       0.5958    1425.14548       0.7690       0.5958
   1425.13022       0.8036       0.7534    1425.13022       0.8035       0.7533
   1425.11497       0.8488       0.7130    1425.11497       0.8488       0.7129
   1425.09971       0.8349       0.5589    1425.09971       0.8349       0.5588
   1425.08445       0.8334       0.6544    1425.08445       0.8334       0.6543
   1425.06919       0.8279       0.6609    1425.06919       0.8279       0.6608
   1425.05393       0.7454       0.6444    1425.05393       0.7453       0.6443
   1425.03867       0.7355       0.6680    1425.03867       0.7355       0.6680
   1425.02341       0.7755       0.5191    1425.02341       0.7755       0.5191
   1425.00815       0.8459       0.6640    1425.00815       0.8459       0.6640
   1424.99290       0.8070       0.7442    1424.99290       0.8070       0.7442
   1424.97764       0.8114       0.7814    1424.97764       0.8114       0.7814
   1424.96238       0.8315       0.5387    1424.96238       0.8315       0.5387
   1424.94712       0.8158       0.7199    1424.94712       0.8158       0.7199
   1424.93186       0.8693       0.6799    1424.93186       0.8692       0.6799
   1424.91660       0.8329       0.6427    1424.91660       0.8329       0.6427
   1424.90134       0.8183       0.6301    1424.90134       0.8183       0.6300
   1424.88608       0.8515       0.7172    1424.88608       0.8515       0.7172
   1424.87083       0.8210       0.6737    1424.87083       0.8209       0.6737
   1424.85557       0.8171       0.7210    1424.85557       0.8170       0.7210
   1424.84031       0.7821       0.7519    1424.84031       0.7821       0.7518
   1424.82505       0.8146       0.6652    1424.82505       0.8146       0.6652
   1424.80979       0.8522       0.7330    1424.80979       0.8522       0.7330
   1424.79453       0.9035       0.6662    1424.79453       0.9035       0.6662
   1424.77927       0.8195       0.7058    1424.77927       0.8195       0.7058
   1424.76401       0.8401       0.7419    1424.76401       0.8400       0.7418
   1424.74875       0.8722       0.6608    1424.74875       0.8722       0.6607
   1424.73350       0.9078       0.7218    1424.73350       0.9077       0.7218
   1424.71824       0.8476       0.6788    1424.71824       0.8475       0.6788
   1424.70298       0.8556       0.6248    1424.70298       0.8556       0.6248
   1424.68772       0.8989       0.7223    1424.68772       0.8989       0.7222
   1424.67246       0.8391       0.7553    1424.67246       0.8391       0.7552
   1424.65720       0.8000       0.6943    1424.65720       0.8000       0.6942
   1424.64194       0.8488       0.6721    1424.64194       0.8488       0.6720
   1424.62668       0.8446       0.7200    1424.62668       0.8445       0.7199
   1424.61143       0.8571       0.6967    1424.61143       0.8571       0.6966
   1424.59617       0.8176       0.7394    1424.59617       0.8176       0.7393
   1424.58091       0.8485       0.6531    1424.58091       0.8484       0.6530
   1424.56565       0.8291       0.6109    1424.56565       0.8291       0.6109
   1424.55039       0.8817       0.6289    1424.55039       0.8817       0.6289
   1424.53513       0.8400       0.7182    1424.53513       0.8400       0.7182
   1424.51987       0.8695       0.7394    1424.51987       0.8695       0.7393
   1424.50461       0.8798       0.7182    1424.50461       0.8797       0.7182
   1424.48936       0.8540       0.6387    1424.48936       0.8540       0.6387
   1424.47410       0.8748       0.6086    1424.47410       0.8748       0.6085
   1424.45884       0.8762       0.6382    1424.45884       0.8762       0.6382
   1424.44358       0.8056       0.6701    1424.44358       0.8056       0.6701
   1424.42832       0.8825       0.6862    1424.42832       0.8825       0.6861
   1424.41306       0.8629       0.7989    1424.41306       0.8629       0.7989
   1424.39780       0.8815       0.6485    1424.39780       0.8815       0.6485
   1424.38254       0.8581       0.6930    1424.38254       0.8581       0.6929
   1424.36729       0.8384       0.7530    1424.36729       0.8384       0.7529
   1424.35203       0.8501       0.6064    1424.35203       0.8501       0.6064
   1424.33677       0.8248       0.6956    1424.33677       0.8248       0.6955
   1424.32151       0.8468       0.7423    1424.32151       0.8468       0.7423
   1424.30625       0.8044       0.7703    1424.30625       0.8044       0.7703
   1424.29099       0.8382       0.7090    1424.29099       0.8382       0.7090
   1424.27573       0.8441       0.7157    1424.27573       0.8441       0.7156
   1424.26047       0.8717       0.7914    1424.26047       0.8717       0.7913
   1424.24521       0.8387       0.6932    1424.24521       0.8387       0.6931
   1424.22996       0.8784       0.7823    1424.22996       0.8783       0.7823
   1424.21470       0.8454       0.7777    1424.21470       0.8454       0.7776
   1424.19944       0.8642       0.7709    1424.19944       0.8642       0.7708
   1424.18418       0.8246       0.7773    1424.18418       0.8246       0.7772
   1424.16892       0.8959       0.8982    1424.16892       0.8959       0.8981
   1424.15366       0.8378       0.7360    1424.15366       0.8378       0.7359
   1424.13840       0.8905       0.6817    1424.13840       0.8904       0.6816
   1424.12314       0.8407       0.7637    1424.12314       0.8407       0.7637
   1424.10789       0.8161       0.7470    1424.10789       0.8161       0.7469
   1424.09263       0.8344       0.6839    1424.09263       0.8344       0.6838
   1424.07737       0.8013       0.6291    1424.07737       0.8012       0.6290
   1424.06211       0.8888       0.8689    1424.06211       0.8888       0.8688
   1424.04685       0.8630       0.6997    1424.04685       0.8630       0.6997
   1424.03159       0.8580       0.7126    1424.03159       0.8580       0.7125
   1424.01633       0.9028       0.7008    1424.01633       0.9028       0.7007
   1424.00107       0.8344       0.7964    1424.00107       0.8344       0.7963
   1423.98582       0.8446       0.7405    1423.98582       0.8446       0.7404
   1423.97056       0.9188       0.7965    1423.97056       0.9188       0.7965
   1423.95530       0.9267       0.6641    1423.95530       0.9267       0.6641
   1423.94004       0.8802       0.7196    1423.94004       0.8802       0.7196
   1423.92478       0.9006       0.6074    1423.92478       0.9006       0.6074
   1423.90952       0.8330       0.6846    1423.90952       0.8330       0.6845
   1423.89426       0.9109       0.6687    1423.89426       0.9109       0.6687
   1423.87900       0.8804       0.7685    1423.87900       0.8804       0.7684
   1423.86375       0.8296       0.7467    1423.86375       0.8296       0.7467
   1423.84849       0.9378       0.7520    1423.84849       0.9378       0.7519
   1423.83323       0.9060       0.7717    1423.83323       0.9059       0.7716
   1423.81797       0.9144       0.7014    1423.81797       0.9144       0.7014
   1423.80271       0.9075       0.8152    1423.80271       0.9075       0.8151
   1423.78745       0.9008       0.7435    1423.78745       0.9008       0.7435
   1423.77219       0.8756       0.8284    1423.77219       0.8756       0.8284
   1423.75693       0.8642       0.7933    1423.75693       0.8642       0.7932
   1423.74167       0.8128       0.7135    1423.74167       0.8128       0.7134
   1423.72642       0.8777       0.6374    1423.72642       0.8777       0.6373
   1423.71116       0.9118       0.7660    1423.71116       0.9118       0.7659
   1423.69590       0.8847       0.7207    1423.69590       0.8847       0.7206
   1423.68064       0.9012       0.7418    1423.68064       0.9012       0.7418
   1423.66538       0.8762       0.7282    1423.66538       0.8762       0.7282
   1423.65012       0.9687       0.8846    1423.65012       0.9687       0.8846
   1423.63486       0.8523       0.7192    1423.63486       0.8523       0.7192
   1423.61960       0.9141       0.8823    1423.61960       0.9141       0.8822
   1423.60435       0.9080       0.8023    1423.60435       0.9080       0.8023
   1423.58909       0.8689       0.7630    1423.58909       0.8689       0.7629
   1423.57383       0.9009       0.8498    1423.57383       0.9009       0.8498
   1423.55857       0.9222       0.7429    1423.55857       0.9222       0.7429
   1423.54331       0.9044       0.7141    1423.54331       0.9044       0.7141
   1423.52805       0.8516       0.7411    1423.52805       0.8516       0.7411
   1423.51279       0.8623       0.7904    1423.51279       0.8623       0.7903
   1423.49753       0.8557       0.7353    1423.49753       0.8557       0.7353
   1423.48228       0.9495       0.6821    1423.48228       0.9495       0.6821
   1423.46702       0.9098       0.8205    1423.46702       0.9098       0.8204
   1423.45176       0.9143       0.8150    1423.45176       0.9142       0.8150
   1423.43650       0.9051       0.7820    1423.43650       0.9051       0.7820
   1423.42124       0.9010       0.7489    1423.42124       0.9010       0.7489
   1423.40598       0.9467       0.7575    1423.40598       0.9466       0.7574
   1423.39072       0.9250       0.7807    1423.39072       0.9250       0.7806
   1423.37546       0.9478       0.6573    1423.37546       0.9478       0.6573
   1423.36021       0.9564       0.8458    1423.36021       0.9564       0.8457
   1423.34495       0.8782       0.7284    1423.34495       0.8782       0.7283
   1423.32969       0.9384       0.8339    1423.32969       0.9383       0.8338
   1423.31443       0.9201       0.8735    1423.31443       0.9201       0.8734
   1423.29917       0.9415       0.6645    1423.29917       0.9415       0.6645
   1423.28391       0.9198       0.6869    1423.28391       0.9198       0.6869
   1423.26865       0.8974       0.7111    1423.26865       0.8974       0.7110
   1423.25339       0.9426       0.8339    1423.25339       0.9426       0.8339
   1423.23813       0.9316       0.7369    1423.23813       0.9316       0.7369
   1423.22288       0.8464       0.7577    1423.22288       0.8464       0.7577
   1423.20762       0.9396       0.7446    1423.20762       0.9396       0.7445
   1423.19236       1.0221       0.8676    1423.19236       1.0221       0.8676
   1423.17710       0.9589       0.8108    1423.17710       0.9589       0.8107
   1423.16184       0.9823       0.8838    1423.16184       0.9823       0.8838
   1423.14658       1.0946       0.8952    1423.14658       1.0946       0.8951
   1423.13132       1.0566       0.9542    1423.13132       1.0566       0.9542
   1423.11606       1.1755       1.0731    1423.11606       1.1755       1.0730
   1423.10081       1.2971       1.0921    1423.10081       1.2971       1.0920
   1423.08555       1.3571       1.3194    1423.08555       1.3571       1.3193
   1423.07029       1.4145       1.4747    1423.07029       1.4145       1.4746
   1423.05503       1.5057       1.4985    1423.05503       1.5057       1.4984
   1423.03977       1.6523       1.6388    1423.03977       1.6523       1.6386
   1423.02451       1.6874       1.7230    1423.02451       1.6874       1.7228
   1423.00925       1.7548       1.7162    1423.00925       1.7548       1.7161
   1422.99399       1.9143       1.9816    1422.99399       1.9142       1.9814
   1422.97874       1.9969       2.0136    1422.97874       1.9969       2.0135
   1422.96348       2.1903       2.0695    1422.96348       2.1902       2.0694
   1422.94822       2.2298       2.2385    1422.94822       2.2297       2.2383
   1422.93296       2.2627       2.2667    1422.93296       2.2627       2.2665
   1422.91770       2.2715       2.2641    1422.91770       2.2714       2.2640
   1422.90244       2.2952       2.4654    1422.90244       2.2952       2.4652
   1422.88718       2.3414       2.3692    1422.88718       2.3413       2.3691
   1422.87192       2.2629       2.4038    1422.87192       2.2629       2.4037
   1422.85667       2.3005       2.4443    1422.85667       2.3005       2.4442
   1422.84141       2.4186       2.4425    1422.84141       2.4186       2.4423
   1422.82615       2.3871       2.4915    1422.82615       2.3870       2.4913
   1422.81089       2.4737       2.4613    1422.81089       2.4736       2.4612
   1422.79563       2.4496       2.5416    1422.79563       2.4495       2.5414
   1422.78037       2.3690       2.5263    1422.78037       2.3690       2.5261
   1422.76511       2.3695       2.4826    1422.76511       2.3694       2.4824
   1422.74985       2.3572       2.4772    1422.74985       2.3571       2.4770
   1422.73459       2.2907       2.4798    1422.73459       2.2907       2.4797
   1422.71934       2.3030       2.4232    1422.71934       2.3030       2.4231
   1422.70408       2.2998       2.2864    1422.70408       2.2998       2.2863
   1422.68882       2.2193       2.2699    1422.68882       2.2192       2.2698
   1422.67356       2.2361       2.2898    1422.67356       2.2360       2.2897
   1422.65830       2.1826       2.3806    1422.65830       2.1826       2.3804
   1422.64304       2.2568       2.4413    1422.64304       2.2568       2.4411
   1422.62778       2.2390       2.3881    1422.62778       2.2390       2.3879
   1422.61252       2.2428       2.4422    1422.61252       2.2427       2.4420
   1422.59727       2.1277       2.3086    1422.59727       2.1277       2.3084
   1422.58201       2.1495       2.3514    1422.58201       2.1494       2.3513
   1422.56675       2.2493       2.4032    1422.56675       2.2492       2.4030
   1422.55149       2.2041       2.4174    1422.55149       2.2041       2.4172
   1422.53623       2.4001       2.5346    1422.53623       2.4001       2.5344
   1422.52097       2.3822       2.5011    1422.52097       2.3822       2.5009
   1422.50571       2.4748       2.5987    1422.50571       2.4747       2.5985
   1422.49045       2.5420       2.7602    1422.49045       2.5419       2.7600
   1422.47520       2.5794       2.7715    1422.47520       2.5794       2.7713
   1422.45994       2.5803       2.9975    1422.45994       2.5803       2.9973
   1422.44468       2.5642       2.8025    1422.44468       2.5641       2.8023
   1422.42942       2.6771       2.9685    1422.42942       2.6771       2.9683
   1422.41416       2.7253       3.0809    1422.41416       2.7252       3.0807
   1422.39890       2.6974       3.1182    1422.39890       2.6973       3.1179
   1422.38364       2.7269       3.1013    1422.38364       2.7269       3.1011
   1422.36838       2.7310       3.1701    1422.36838       2.7310       3.1699
   1422.35312       2.8242       3.1572    1422.35312       2.8242       3.1570
   1422.33787       2.8307       3.2016    1422.33787       2.8306       3.2014
   1422.32261       2.9394       3.1913    1422.32261       2.9394       3.1911
   1422.30735       2.9150       3.3222    1422.30735       2.9150       3.3220
   1422.29209       3.0164       3.4060    1422.29209       3.0164       3.4057
   1422.27683       3.0583       3.4240    1422.27683       3.0583       3.4238
   1422.26157       3.1453       3.4734    1422.26157       3.1452       3.4732
   1422.24631       3.0563       3.5316    1422.24631       3.0562       3.5313
   1422.23105       3.1154       3.5812    1422.23105       3.1153       3.5810
   1422.21580       2.9538       3.5015    1422.21580       2.9538       3.5013
   1422.20054       3.0511       3.4746    1422.20054       3.0511       3.4744
   1422.18528       3.1255       3.5099    1422.18528       3.1255       3.5097
   1422.17002       3.0485       3.4685    1422.17002       3.0484       3.4683
   1422.15476       3.0717       3.6068    1422.15476       3.0716       3.6065
   1422.13950       3.1104       3.5851    1422.13950       3.1104       3.5849
   1422.12424       3.1882       3.5815    1422.12424       3.1882       3.5813
   1422.10898       3.1321       3.6313    1422.10898       3.1321       3.6311
   1422.09373       3.2198       3.5453    1422.09373       3.2198       3.5450
   1422.07847       3.1163       3.5615    1422.07847       3.1162       3.5613
   1422.06321       3.1111       3.5740    1422.06321       3.1111       3.5738
   1422.04795       3.0497       3.3787    1422.04795       3.0497       3.3785
   1422.03269       2.9883       3.3673    1422.03269       2.9883       3.3670
   1422.01743       2.9632       3.3582    1422.01743       2.9632       3.3579
   1422.00217       2.9266       3.4085    1422.00217       2.9265       3.4083
   1421.98691       3.0526       3.4139    1421.98691       3.0525       3.4137
   1421.97166       3.0390       3.4050    1421.97166       3.0389       3.4048
   1421.95640       2.9750       3.3281    1421.95640       2.9749       3.3278
   1421.94114       2.9168       3.2576    1421.94114       2.9168       3.2574
   1421.92588       2.7822       3.1211    1421.92588       2.7822       3.1209
   1421.91062       2.7838       3.1534    1421.91062       2.7838       3.1531
   1421.89536       2.7567       3.0266    1421.89536       2.7567       3.0264
   1421.88010       2.6968       3.0644    1421.88010       2.6968       3.0642
   1421.86484       2.6301       2.9140    1421.86484       2.6301       2.9138
   1421.84958       2.5367       2.8317    1421.84958       2.5367       2.8315
   1421.83433       2.4497       2.6749    1421.83433       2.4496       2.6747
   1421.81907       2.3910       2.6340    1421.81907       2.3910       2.6338
   1421.80381       2.2560       2.4886    1421.80381       2.2560       2.4884
   1421.78855       2.2292       2.3887    1421.78855       2.2292       2.3885
   1421.77329       2.0382       2.2043    1421.77329       2.0381       2.2041
   1421.75803       2.0120       2.0784    1421.75803       2.0120       2.0783
   1421.74277       2.0434       2.0153    1421.74277       2.0434       2.0152
   1421.72751       1.9247       1.9630    1421.72751       1.9246       1.9629
   1421.71226       1.8246       1.8023    1421.71226       1.8245       1.8022
   1421.69700       1.7531       1.7385    1421.69700       1.7531       1.7384
   1421.68174       1.7237       1.6860    1421.68174       1.7237       1.6859
   1421.66648       1.6093       1.6238    1421.66648       1.6093       1.6237
   1421.65122       1.6625       1.6550    1421.65122       1.6625       1.6549
   1421.63596       1.6062       1.5438    1421.63596       1.6062       1.5437
   1421.62070       1.6291       1.5154    1421.62070       1.6291       1.5153
   1421.60544       1.4814       1.3913    1421.60544       1.4814       1.3912
   1421.59019       1.4887       1.3707    1421.59019       1.4887       1.3706
   1421.57493       1.3691       1.2471    1421.57493       1.3691       1.2470
   1421.55967       1.3367       1.2946    1421.55967       1.3367       1.2945
   1421.54441       1.2855       1.1588    1421.54441       1.2855       1.1587
   1421.52915       1.3284       1.2266    1421.52915       1.3284       1.2265
   1421.51389       1.3181       1.0631    1421.51389       1.3180       1.0630
   1421.49863       1.2425       1.0936    1421.49863       1.2425       1.0935
   1421.48337       1.2055       1.0655    1421.48337       1.2055       1.0654
   1421.46812       1.1922       1.0371    1421.46812       1.1921       1.0370
   1421.45286       1.1531       0.9758    1421.45286       1.1531       0.9757
   1421.43760       1.1853       0.8960    1421.43760       1.1853       0.8959
   1421.42234       1.1158       0.9742    1421.42234       1.1158       0.9742
   1421.40708       1.1611       0.9127    1421.40708       1.1610       0.9127
   1421.39182       1.0145       0.8410    1421.39182       1.0145       0.8409
   1421.37656       1.1089       0.9520    1421.37656       1.1089       0.9519
   1421.36130       1.1169       0.9301    1421.36130       1.1169       0.9300
   1421.34604       1.0874       0.8986    1421.34604       1.0874       0.8985
   1421.33079       0.9678       0.8177    1421.33079       0.9678       0.8176
   1421.31553       1.1034       0.8234    1421.31553       1.1034       0.8233
   1421.30027       1.0590       0.8455    1421.30027       1.0590       0.8454
   1421.28501       1.0143       0.8825    1421.28501       1.0143       0.8825
   1421.26975       1.0861       0.8539    1421.26975       1.0860       0.8538
   1421.25449       1.0043       0.8311    1421.25449       1.0043       0.8311
   1421.23923       1.0233       0.8172    1421.23923       1.0233       0.8171
   1421.22397       0.9426       0.8075    1421.22397       0.9426       0.8075
   1421.20872       0.9751       0.8014    1421.20872       0.9751       0.8013
   1421.19346       1.0277       0.8440    1421.19346       1.0276       0.8440
   1421.17820       1.0175       0.7540    1421.17820       1.0175       0.7539
   1421.16294       0.9978       0.8393    1421.16294       0.9978       0.8393
   1421.14768       0.9560       0.7782    1421.14768       0.9559       0.7781
   1421.13242       0.9534       0.8874    1421.13242       0.9534       0.8874
   1421.11716       1.0747       0.7895    1421.11716       1.0747       0.7895
   1421.10190       1.0174       0.8947    1421.10190       1.0173       0.8946
   1421.08665       1.0057       0.9054    1421.08665       1.0057       0.9054
   1421.07139       0.9698       0.8242    1421.07139       0.9698       0.8241
   1421.05613       1.0016       0.8107    1421.05613       1.0016       0.8106
   1421.04087       0.9845       0.8522    1421.04087       0.9845       0.8521
   1421.02561       0.9903       0.8120    1421.02561       0.9903       0.8120
   1421.01035       0.9094       0.7977    1421.01035       0.9094       0.7977
   1420.99509       0.8889       0.7789    1420.99509       0.8889       0.7788
   1420.97983       0.9623       0.7197    1420.97983       0.9622       0.7197
   1420.96458       0.9453       0.7469    1420.96458       0.9453       0.7468
   1420.94932       0.9108       0.6887    1420.94932       0.9108       0.6886
   1420.93406       0.9187       0.6568    1420.93406       0.9187       0.6568
   1420.91880       0.9204       0.7876    1420.91880       0.9204       0.7875
   1420.90354       0.9220       0.6467    1420.90354       0.9220       0.6466
   1420.88828       0.8040       0.6002    1420.88828       0.8039       0.6002
   1420.87302       0.7703       0.5400    1420.87302       0.7702       0.5399
   1420.85776       0.7974       0.4191    1420.85776       0.7974       0.4191
   1420.84250       0.7091       0.4000    1420.84250       0.7091       0.4000
   1420.82725       0.6705       0.3952    1420.82725       0.6704       0.3952
   1420.81199       0.6679       0.4063    1420.81199       0.6678       0.4063
   1420.79673       0.6219       0.4192    1420.79673       0.6219       0.4192
   1420.78147       0.8227       0.4990    1420.78147       0.8227       0.4989
   1420.76621       0.8917       0.7491    1420.76621       0.8917       0.7491
   1420.75095       0.9154       0.6338    1420.75095       0.9154       0.6338
   1420.73569       0.9517       0.6976    1420.73569       0.9517       0.6975
   1420.72043       0.9122       0.7208    1420.72043       0.9122       0.7207
   1420.70518       0.9731       0.8558    1420.70518       0.9730       0.8557
   1420.68992       1.1362       1.0465    1420.68992       1.1362       1.0464
   1420.67466       1.4139       1.3719    1420.67466       1.4138       1.3718
   1420.65940       1.5608       1.5304    1420.65940       1.5607       1.5303
   1420.64414       1.7404       1.7015    1420.64414       1.7403       1.7014
   1420.62888       1.7709       1.9222    1420.62888       1.7708       1.9221
   1420.61362       1.8285       1.8836    1420.61362       1.8285       1.8834
   1420.59836       1.8857       2.1549    1420.59836       1.8857       2.1547
   1420.58311       1.9978       2.0630    1420.58311       1.9978       2.0628
   1420.56785       1.9228       2.0701    1420.56785       1.9228       2.0699
   1420.55259       1.9981       2.0974    1420.55259       1.9981       2.0973
   1420.53733       1.4084       1.3387    1420.53733       1.4083       1.3386
   1420.52207       0.8820       0.6445    1420.52207       0.8820       0.6445
   1420.50681       0.6243       0.3009    1420.50681       0.6243       0.3009
   1420.49155       0.5439       0.2381    1420.49155       0.5439       0.2380
   1420.47629       0.6801       0.4013    1420.47629       0.6801       0.4013
   1420.46104       0.8983       0.6851    1420.46104       0.8983       0.6851
   1420.44578       0.8984       0.6707    1420.44578       0.8984       0.6707
   1420.43052       0.5524       0.2879    1420.43052       0.5523       0.2879
   1420.41526       0.2739      -0.1688    1420.41526       0.2739      -0.1688
   1420.40000       0.0652      -0.3563    1420.40000       0.0652      -0.3563
   1420.38474      -0.1345      -0.5335    1420.38474      -0.1345      -0.5335
   1420.36948       2.3779       2.7600    1420.36948       2.3778       2.7598
   1420.35422       5.5269       6.7526    1420.35422       5.5268       6.7521
   1420.33896       3.2951       3.9285    1420.33896       3.2951       3.9283
   1420.32371       1.1291       1.0150    1420.32371       1.1291       1.0149
   1420.30845       1.0605       0.8864    1420.30845       1.0605       0.8863
   1420.29319       0.9269       0.9045    1420.29319       0.9269       0.9045
   1420.27793       0.9215       0.6799    1420.27793       0.9215       0.6799
   1420.26267       0.9815       0.6966    1420.26267       0.9815       0.6966
   1420.24741       0.8864       0.6921    1420.24741       0.8864       0.6921
   1420.23215       0.8816       0.7166    1420.23215       0.8816       0.7165
   1420.21689       0.8767       0.6761    1420.21689       0.8767       0.6761
   1420.20164       0.8633       0.7618    1420.20164       0.8633       0.7617
   1420.18638       0.9278       0.6738    1420.18638       0.9278       0.6738
   1420.17112       0.9575       0.7708    1420.17112       0.9575       0.7707
   1420.15586       0.9437       0.7183    1420.15586       0.9436       0.7182
   1420.14060       0.9206       0.7141    1420.14060       0.9206       0.7141
   1420.12534       0.9602       0.7595    1420.12534       0.9602       0.7594
   1420.11008       0.9419       0.7214    1420.11008       0.9419       0.7213
   1420.09482       0.8866       0.6818    1420.09482       0.8866       0.6817
   1420.07957       0.9591       0.7674    1420.07957       0.9591       0.7674
   1420.06431       0.9399       0.7283    1420.06431       0.9399       0.7282
   1420.04905       0.8927       0.8180    1420.04905       0.8926       0.8179
   1420.03379       0.8852       0.7873    1420.03379       0.8852       0.7873
   1420.01853       0.8889       0.7973    1420.01853       0.8889       0.7972
   1420.00327       0.9366       0.7036    1420.00327       0.9366       0.7036
   1419.98801       0.9233       0.7207    1419.98801       0.9233       0.7207
   1419.97275       0.9385       0.8187    1419.97275       0.9384       0.8186
   1419.95750       0.9169       0.7917    1419.95750       0.9169       0.7916
   1419.94224       0.9445       0.6841    1419.94224       0.9445       0.6841
   1419.92698       0.9134       0.7858    1419.92698       0.9134       0.7857
   1419.91172       0.9467       0.8256    1419.91172       0.9467       0.8255
   1419.89646       0.8744       0.7589    1419.89646       0.8744       0.7589
   1419.88120       0.8628       0.7763    1419.88120       0.8628       0.7763
   1419.86594       0.9831       0.7844    1419.86594       0.9831       0.7844
   1419.85068       0.9618       0.6915    1419.85068       0.9618       0.6914
   1419.83542       0.9574       0.7661    1419.83542       0.9574       0.7660
   1419.82017       0.9541       0.7532    1419.82017       0.9541       0.7531
   1419.80491       0.9203       0.7529    1419.80491       0.9202       0.7528
   1419.78965       0.9136       0.8470    1419.78965       0.9136       0.8470
   1419.77439       0.8567       0.7930    1419.77439       0.8567       0.7929
   1419.75913       0.9209       0.6965    1419.75913       0.9208       0.6964
   1419.74387       0.9568       0.7837    1419.74387       0.9568       0.7837
   1419.72861       0.9304       0.7539    1419.72861       0.9304       0.7538
   1419.71335       0.8596       0.8286    1419.71335       0.8596       0.8285
   1419.69810       0.9348       0.7131    1419.69810       0.9348       0.7130
   1419.68284       0.9464       0.7489    1419.68284       0.9464       0.7489
   1419.66758       0.8770       0.8057    1419.66758       0.8770       0.8057
   1419.65232       0.9572       0.7232    1419.65232       0.9572       0.7231
   1419.63706       1.0043       0.7499    1419.63706       1.0043       0.7499
   1419.62180       1.0097       0.7672    1419.62180       1.0097       0.7671
   1419.60654       0.9528       0.8024    1419.60654       0.9528       0.8023
   1419.59128       0.8667       0.8740    1419.59128       0.8667       0.8740
   1419.57603       0.9543       0.8478    1419.57603       0.9543       0.8478
   1419.56077       0.9385       0.8287    1419.56077       0.9384       0.8286
   1419.54551       0.8642       0.7931    1419.54551       0.8642       0.7930
   1419.53025       0.8458       0.8366    1419.53025       0.8458       0.8366
   1419.51499       0.9346       0.7924    1419.51499       0.9346       0.7923
   1419.49973       0.8943       0.8297    1419.49973       0.8943       0.8297
   1419.48447       0.8834       0.8040    1419.48447       0.8834       0.8040
   1419.46921       0.9124       0.7442    1419.46921       0.9124       0.7441
   1419.45396       0.9046       0.7470    1419.45396       0.9046       0.7469
   1419.43870       0.8925       0.8218    1419.43870       0.8925       0.8217
   1419.42344       0.9265       0.7532    1419.42344       0.9265       0.7531
   1419.40818       0.8723       0.8504    1419.40818       0.8723       0.8503
   1419.39292       0.8650       0.8596    1419.39292       0.8649       0.8595
   1419.37766       0.8922       0.8529    1419.37766       0.8922       0.8528
   1419.36240       0.8995       0.7638    1419.36240       0.8995       0.7638
   1419.34714       0.8964       0.7956    1419.34714       0.8964       0.7956
   1419.33188       0.9423       0.7793    1419.33188       0.9423       0.7793
   1419.31663       0.8770       0.8192    1419.31663       0.8770       0.8191
   1419.30137       0.8336       0.8734    1419.30137       0.8336       0.8734
   1419.28611       0.8686       0.7806    1419.28611       0.8686       0.7806
   1419.27085       0.9509       0.8205    1419.27085       0.9509       0.8205
   1419.25559       0.8561       0.8037    1419.25559       0.8561       0.8036
   1419.24033       0.8428       0.8023    1419.24033       0.8428       0.8022
   1419.22507       0.7945       0.7832    1419.22507       0.7945       0.7832
   1419.20981       0.8687       0.7359    1419.20981       0.8686       0.7358
   1419.19456       0.8984       0.8447    1419.19456       0.8984       0.8447
   1419.17930       0.8821       0.7504    1419.17930       0.8821       0.7504
   1419.16404       0.8022       0.7723    1419.16404       0.8022       0.7722
   1419.14878       0.9095       0.8343    1419.14878       0.9095       0.8343
   1419.13352       0.7910       0.7401    1419.13352       0.7910       0.7400
   1419.11826       0.8728       0.8647    1419.11826       0.8728       0.8646
   1419.10300       0.8938       0.8230    1419.10300       0.8938       0.8230
   1419.08774       0.8987       0.7756    1419.08774       0.8987       0.7756
   1419.07249       0.8866       0.7657    1419.07249       0.8866       0.7657
   1419.05723       0.8228       0.8034    1419.05723       0.8228       0.8033
   1419.04197       0.8393       0.8440    1419.04197       0.8393       0.8440
   1419.02671       0.8142       0.7662    1419.02671       0.8142       0.7662
   1419.01145       0.8464       0.7775    1419.01145       0.8464       0.7775
   1418.99619       0.7928       0.8323    1418.99619       0.7928       0.8322
   1418.98093       0.7949       0.9376    1418.98093       0.7949       0.9375
   1418.96567       0.7719       0.8372    1418.96567       0.7719       0.8371
   1418.95042       0.8299       0.8383    1418.95042       0.8299       0.8383
   1418.93516       0.7888       0.8621    1418.93516       0.7888       0.8621
   1418.91990       0.8343       0.7884    1418.91990       0.8343       0.7884
   1418.90464       0.7791       0.8252    1418.90464       0.7790       0.8252
   1418.88938       0.7956       0.8368    1418.88938       0.7956       0.8367
   1418.87412       0.7755       0.8695    1418.87412       0.7755       0.8695
   1418.85886       0.7252       0.9128    1418.85886       0.7251       0.9128
   1418.84360       0.8063       0.8563    1418.84360       0.8063       0.8563
   1418.82834       0.7523       0.8998    1418.82834       0.7522       0.8997
   1418.81309       0.7539       0.8207    1418.81309       0.7539       0.8207
   1418.79783       0.8205       0.8674    1418.79783       0.8205       0.8673
   1418.78257       0.7464       0.8415    1418.78257       0.7463       0.8414
   1418.76731       0.7370       0.8844    1418.76731       0.7370       0.8843
   1418.75205       0.8033       0.8473    1418.75205       0.8033       0.8473
   1418.73679       0.7347       0.8824    1418.73679       0.7347       0.8824
   1418.72153       0.8133       0.9031    1418.72153       0.8133       0.9030
   1418.70627       0.7220       0.9471    1418.70627       0.7220       0.9470
   1418.69102       0.7598       0.8336    1418.69102       0.7597       0.8336
   1418.67576       0.7356       0.8015    1418.67576       0.7356       0.8014
   1418.66050       0.7535       0.9299    1418.66050       0.7535       0.9299
   1418.64524       0.7403       0.8703    1418.64524       0.7403       0.8703
   1418.62998       0.8256       0.8396    1418.62998       0.8256       0.8396
   1418.61472       0.7351       0.8334    1418.61472       0.7351       0.8334
   1418.59946       0.7864       0.9070    1418.59946       0.7864       0.9069
   1418.58420       0.7881       0.7754    1418.58420       0.7881       0.7753
   1418.56895       0.7724       0.8941    1418.56895       0.7724       0.8940
   1418.55369       0.7363       0.9387    1418.55369       0.7363       0.9387
   1418.53843       0.7944       0.9349    1418.53843       0.7944       0.9348
   1418.52317       0.7748       0.9541    1418.52317       0.7748       0.9540
   1418.50791       0.7429       0.8496    1418.50791       0.7429       0.8495
   1418.49265       0.7344       0.8643    1418.49265       0.7344       0.8643
   1418.47739       0.7839       0.9271    1418.47739       0.7839       0.9270
   1418.46213       0.7990       0.9392    1418.46213       0.7990       0.9391
   1418.44687       0.7627       0.8641    1418.44687       0.7627       0.8640
   1418.43162       0.7218       0.9113    1418.43162       0.7217       0.9113
   1418.41636       0.7023       0.9737    1418.41636       0.7023       0.9736
   1418.40110       0.7352       0.8649    1418.40110       0.7352       0.8648
   1418.38584       0.7100       0.8784    1418.38584       0.7100       0.8783
   1418.37058       0.7597       0.8578    1418.37058       0.7597       0.8577
   1418.35532       0.7492       0.8758    1418.35532       0.7492       0.8758
   1418.34006       0.7148       0.9011    1418.34006       0.7148       0.9010
   1418.32480       0.6574       1.0132    1418.32480       0.6574       1.0131
   1418.30955       0.7194       0.9222    1418.30955       0.7194       0.9221
   1418.29429       0.7187       0.8497    1418.29429       0.7187       0.8497
   1418.27903       0.7765       0.9086    1418.27903       0.7765       0.9085
   1418.26377       0.6653       0.8596    1418.26377       0.6653       0.8596
   1418.24851       0.7479       0.9434    1418.24851       0.7478       0.9434
   1418.23325       0.6970       0.9228    1418.23325       0.6970       0.9227
   1418.21799       0.6663       0.8403    1418.21799       0.6663       0.8403
   1418.20273       0.7178       0.9392    1418.20273       0.7178       0.9392
   1418.18748       0.6735       0.8988    1418.18748       0.6735       0.8987
   1418.17222       0.7169       0.8931    1418.17222       0.7169       0.8931
   1418.15696       0.7088       0.9395    1418.15696       0.7088       0.9395
   1418.14170       0.6822       0.8922    1418.14170       0.6822       0.8921
   1418.12644       0.6882       0.9671    1418.12644       0.6882       0.9670
   1418.11118       0.7412       0.9427    1418.11118       0.7412       0.9427
   1418.09592       0.6536       0.8617    1418.09592       0.6536       0.8617
   1418.08066       0.6839       0.8881    1418.08066       0.6839       0.8880
   1418.06541       0.7189       0.8217    1418.06541       0.7189       0.8216
   1418.05015       0.6578       0.9578    1418.05015       0.6577       0.9577
   1418.03489       0.6535       0.9040    1418.03489       0.6535       0.9040
   1418.01963       0.7167       0.8686    1418.01963       0.7167       0.8686
   1418.00437       0.6774       0.8395    1418.00437       0.6774       0.8394
   1417.98911       0.6511       0.7883    1417.98911       0.6510       0.7883
   1417.97385       0.6495       0.8822    1417.97385       0.6495       0.8822
   1417.95859       0.6756       0.9372    1417.95859       0.6756       0.9371
   1417.94333       0.6750       0.9366    1417.94333       0.6750       0.9365
   1417.92808       0.6950       0.8926    1417.92808       0.6949       0.8925
   1417.91282       0.6090       0.9056    1417.91282       0.6090       0.9056
   1417.89756       0.6719       0.9472    1417.89756       0.6719       0.9471
   1417.88230       0.6508       0.9699    1417.88230       0.6508       0.9698
   1417.86704       0.6316       0.9010    1417.86704       0.6316       0.9009
   1417.85178       0.6594       0.9043    1417.85178       0.6594       0.9043
   1417.83652       0.7007       0.8685    1417.83652       0.7007       0.8684
   1417.82126       0.6883       0.9730    1417.82126       0.6883       0.9730
   1417.80601       0.7311       0.8766    1417.80601       0.7311       0.8765
   1417.79075       0.6669       0.8700    1417.79075       0.6669       0.8699
   1417.77549       0.6545       0.8926    1417.77549       0.6545       0.8925
   1417.76023       0.6736       0.9127    1417.76023       0.6736       0.9127
   1417.74497       0.7369       0.9455    1417.74497       0.7369       0.9455
   1417.72971       0.6656       0.8434    1417.72971       0.6655       0.8434
   1417.71445       0.6211       0.8668    1417.71445       0.6210       0.8667
   1417.69919       0.6084       0.8597    1417.69919       0.6084       0.8597
   1417.68394       0.6792       0.9374    1417.68394       0.6792       0.9373
   1417.66868       0.6543       0.8935    1417.66868       0.6543       0.8934
   1417.65342       0.6545       0.9296    1417.65342       0.6545       0.9295
   1417.63816       0.7277       0.8450    1417.63816       0.7277       0.8449
   1417.62290       0.6875       0.8458    1417.62290       0.6875       0.8458
   1417.60764       0.7338       0.8949    1417.60764       0.7338       0.8949
   1417.59238       0.6678       0.9075    1417.59238       0.6678       0.9074
   1417.57712       0.6640       0.9465    1417.57712       0.6640       0.9465
   1417.56187       0.6752       0.9451    1417.56187       0.6751       0.9451
   1417.54661       0.6572       0.8272    1417.54661       0.6571       0.8271
   1417.53135       0.6400       0.9375    1417.53135       0.6400       0.9375
   1417.51609       0.6873       0.9151    1417.51609       0.6873       0.9150
   1417.50083       0.6716       0.9298    1417.50083       0.6716       0.9297
   1417.48557       0.7240       0.9057    1417.48557       0.7240       0.9057
   1417.47031       0.6830       0.9181    1417.47031       0.6830       0.9180
   1417.45505       0.6531       0.9148    1417.45505       0.6531       0.9147
   1417.43979       0.6351       0.8787    1417.43979       0.6351       0.8786
   1417.42454       0.6047       0.8187    1417.42454       0.6047       0.8187
   1417.40928       0.6494       0.8429    1417.40928       0.6494       0.8428
   1417.39402       0.5834       0.8650    1417.39402       0.5833       0.8649
   1417.37876       0.6613       0.8082    1417.37876       0.6613       0.8081
   1417.36350       0.6621       0.8540    1417.36350       0.6621       0.8540
   1417.34824       0.6309       0.8596    1417.34824       0.6309       0.8596
   1417.33298       0.6927       0.9092    1417.33298       0.6927       0.9091
   1417.31772       0.7339       0.9406    1417.31772       0.7339       0.9405
   1417.30247       0.6404       0.9300    1417.30247       0.6404       0.9299
   1417.28721       0.7450       0.7974    1417.28721       0.7450       0.7973
   1417.27195       0.6371       0.8765    1417.27195       0.6371       0.8765
   1417.25669       0.6271       0.8012    1417.25669       0.6271       0.8012
   1417.24143       0.6070       0.8286    1417.24143       0.6070       0.8286
   1417.22617       0.6933       0.8497    1417.22617       0.6933       0.8497
   1417.21091       0.7178       0.9209    1417.21091       0.7178       0.9208
   1417.19565       0.6364       0.9563    1417.19565       0.6364       0.9562
   1417.18040       0.6852       0.9723    1417.18040       0.6852       0.9722
   1417.16514       0.5884       0.8780    1417.16514       0.5884       0.8779
   1417.14988       0.5864       0.9976    1417.14988       0.5864       0.9975
   1417.13462       0.6366       0.8341    1417.13462       0.6366       0.8340
   1417.11936       0.7100       0.9012    1417.11936       0.7100       0.9011
   1417.10410       0.7347       0.8704    1417.10410       0.7346       0.8703
   1417.08884       0.6865       0.8978    1417.08884       0.6865       0.8978
   1417.07358       0.7633       0.8846    1417.07358       0.7633       0.8845
   1417.05833       0.6986       0.8657    1417.05833       0.6985       0.8656
   1417.04307       0.7348       0.8570    1417.04307       0.7348       0.8569
   1417.02781       0.6248       0.8804    1417.02781       0.6248       0.8803
   1417.01255       0.6285       0.8144    1417.01255       0.6285       0.8143
   1416.99729       0.7098       0.9252    1416.99729       0.7097       0.9251
   1416.98203       0.6893       0.8971    1416.98203       0.6893       0.8971
   1416.96677       0.6766       0.9058    1416.96677       0.6766       0.9057
   1416.95151       0.6570       0.8317    1416.95151       0.6570       0.8317
   1416.93625       0.6941       0.9036    1416.93625       0.6941       0.9035
   1416.92100       0.6296       0.9187    1416.92100       0.6296       0.9187
   1416.90574       0.7577       0.8890    1416.90574       0.7577       0.8890
   1416.89048       0.6846       0.8477    1416.89048       0.6846       0.8476
   1416.87522       0.6890       0.8554    1416.87522       0.6890       0.8554
   1416.85996       0.6743       0.8652    1416.85996       0.6743       0.8652
   1416.84470       0.6494       0.8828    1416.84470       0.6494       0.8827
   1416.82944       0.7299       0.8651    1416.82944       0.7299       0.8651
   1416.81418       0.7298       0.8679    1416.81418       0.7298       0.8678
   1416.79893       0.7329       0.8784    1416.79893       0.7329       0.8783
   1416.78367       0.6800       0.8868    1416.78367       0.6800       0.8867
   1416.76841       0.6943       0.7725    1416.76841       0.6943       0.7724
   1416.75315       0.7332       0.8448    1416.75315       0.7332       0.8448
   1416.73789       0.6838       0.8733    1416.73789       0.6838       0.8733
   1416.72263       0.7026       0.8539    1416.72263       0.7025       0.8539
   1416.70737       0.6747       0.8102    1416.70737       0.6747       0.8102
   1416.69211       0.7447       0.8377    1416.69211       0.7447       0.8377
   1416.67686       0.7516       0.7855    1416.67686       0.7516       0.7854
   1416.66160       0.7935       0.9166    1416.66160       0.7935       0.9165
   1416.64634       0.6673       0.7554    1416.64634       0.6673       0.7553
   1416.63108       0.7301       0.7598    1416.63108       0.7301       0.7598
   1416.61582       0.7828       0.7645    1416.61582       0.7828       0.7645
   1416.60056       0.6891       0.7874    1416.60056       0.6891       0.7874
   1416.58530       0.7482       0.8573    1416.58530       0.7482       0.8572
   1416.57004       0.7429       0.8901    1416.57004       0.7429       0.8901
   1416.55479       0.6973       0.8657    1416.55479       0.6973       0.8656
   1416.53953       0.7129       0.8278    1416.53953       0.7129       0.8277
   1416.52427       0.7122       0.7009    1416.52427       0.7122       0.7008
   1416.50901       0.7984       0.8093    1416.50901       0.7983       0.8092
   1416.49375       0.7045       0.8432    1416.49375       0.7045       0.8432
   1416.47849       0.6691       0.8360    1416.47849       0.6691       0.8360
   1416.46323       0.7185       0.6979    1416.46323       0.7185       0.6978
   1416.44797       0.7201       0.8293    1416.44797       0.7201       0.8292
   1416.43271       0.7232       0.8181    1416.43271       0.7232       0.8180
   1416.41746       0.6847       0.7355    1416.41746       0.6847       0.7354
   1416.40220       0.7154       0.8111    1416.40220       0.7154       0.8110
   1416.38694       0.8024       0.8033    1416.38694       0.8024       0.8033
   1416.37168       0.6970       0.8110    1416.37168       0.6970       0.8109
   1416.35642       0.7185       0.7991    1416.35642       0.7185       0.7991
   1416.34116       0.7435       0.7612    1416.34116       0.7435       0.7612
   1416.32590       0.7509       0.7155    1416.32590       0.7509       0.7155
   1416.31064       0.7528       0.7768    1416.31064       0.7528       0.7767
   1416.29539       0.6969       0.7078    1416.29539       0.6969       0.7078
   1416.28013       0.7392       0.6542    1416.28013       0.7391       0.6542
   1416.26487       0.8012       0.7663    1416.26487       0.8012       0.7662
   1416.24961       0.7603       0.8053    1416.24961       0.7603       0.8052
   1416.23435       0.7172       0.7592    1416.23435       0.7172       0.7592
   1416.21909       0.7726       0.8022    1416.21909       0.7726       0.8022
   1416.20383       0.7109       0.7455    1416.20383       0.7108       0.7454
   1416.18857       0.6608       0.6504    1416.18857       0.6608       0.6504
   1416.17332       0.7579       0.7570    1416.17332       0.7579       0.7570
   1416.15806       0.7588       0.8172    1416.15806       0.7588       0.8171
   1416.14280       0.7936       0.7188    1416.14280       0.7936       0.7188
   1416.12754       0.8164       0.7436    1416.12754       0.8164       0.7436
   1416.11228       0.7144       0.7671    1416.11228       0.7144       0.7671
   1416.09702       0.7290       0.7280    1416.09702       0.7290       0.7279
   1416.08176       0.7576       0.7091    1416.08176       0.7576       0.7091
   1416.06650       0.7504       0.7312    1416.06650       0.7504       0.7312
   1416.05125       0.7067       0.7687    1416.05125       0.7067       0.7686
   1416.03599       0.7707       0.7307    1416.03599       0.7707       0.7307
   1416.02073       0.7421       0.7621    1416.02073       0.7421       0.7620
   1416.00547       0.7240       0.6618    1416.00547       0.7240       0.6618
   1415.99021       0.7472       0.7003    1415.99021       0.7472       0.7002
   1415.97495       0.7859       0.7200    1415.97495       0.7859       0.7200
   1415.95969       0.7752       0.7639    1415.95969       0.7752       0.7638
   1415.94443       0.6782       0.7022    1415.94443       0.6782       0.7021
   1415.92917       0.7019       0.6971    1415.92917       0.7018       0.6971
   1415.91392       0.7927       0.7016    1415.91392       0.7927       0.7016
   1415.89866       0.8103       0.7901    1415.89866       0.8103       0.7901
   1415.88340       0.8127       0.6722    1415.88340       0.8127       0.6722
   1415.86814       0.7815       0.7365    1415.86814       0.7815       0.7365
   1415.85288       0.7668       0.7274    1415.85288       0.7667       0.7273
   1415.83762       0.7576       0.6894    1415.83762       0.7575       0.6893
   1415.82236       0.8094       0.7305    1415.82236       0.8094       0.7305
   1415.80710       0.7737       0.6883    1415.80710       0.7737       0.6883
   1415.79185       0.7394       0.6419    1415.79185       0.7394       0.6418
   1415.77659       0.8277       0.6501    1415.77659       0.8277       0.6501
   1415.76133       0.7720       0.6565    1415.76133       0.7720       0.6565
   1415.74607       0.7960       0.7616    1415.74607       0.7960       0.7615
   1415.73081       0.8297       0.6778    1415.73081       0.8297       0.6777
   1415.71555       0.7720       0.7480    1415.71555       0.7720       0.7479
   1415.70029       0.8111       0.7352    1415.70029       0.8111       0.7352
   1415.68503       0.8249       0.6670    1415.68503       0.8249       0.6670
   1415.66978       0.8419       0.7056    1415.66978       0.8419       0.7056
   1415.65452       0.7491       0.6881    1415.65452       0.7491       0.6880
   1415.63926       0.7958       0.7008    1415.63926       0.7958       0.7007
   1415.62400       0.8561       0.6391    1415.62400       0.8561       0.6391
   1415.60874       0.8524       0.6891    1415.60874       0.8524       0.6890
   1415.59348       0.7538       0.6833    1415.59348       0.7538       0.6833
   1415.57822       0.7926       0.7143    1415.57822       0.7926       0.7143
   1415.56296       0.7621       0.6988    1415.56296       0.7621       0.6987
   1415.54771       0.7529       0.7686    1415.54771       0.7529       0.7686
   1415.53245       0.8274       0.7877    1415.53245       0.8274       0.7876
   1415.51719       0.8423       0.6599    1415.51719       0.8422       0.6599
   1415.50193       0.8322       0.7862    1415.50193       0.8322       0.7861
   1415.48667       0.8686       0.6794    1415.48667       0.8686       0.6793
   1415.47141       0.9084       0.7058    1415.47141       0.9084       0.7058
   1415.45615       0.8288       0.7013    1415.45615       0.8288       0.7012
   1415.44089       0.8238       0.8299    1415.44089       0.8238       0.8299
   1415.42563       0.8466       0.7878    1415.42563       0.8466       0.7877
   1415.41038       0.8364       0.7759    1415.41038       0.8364       0.7758
   1415.39512       0.7839       0.7453    1415.39512       0.7839       0.7452
   1415.37986       0.8066       0.7185    1415.37986       0.8066       0.7185
   1415.36460       0.8140       0.6744    1415.36460       0.8140       0.6744
   1415.34934       0.7853       0.7028    1415.34934       0.7853       0.7028
   1415.33408       0.7336       0.7670    1415.33408       0.7336       0.7670
   1415.31882       0.8238       0.6911    1415.31882       0.8238       0.6911
   1415.30356       0.8486       0.6979    1415.30356       0.8486       0.6978
   1415.28831       0.8199       0.6605    1415.28831       0.8199       0.6605
   1415.27305       0.8541       0.6545    1415.27305       0.8541       0.6544
   1415.25779       0.8076       0.6880    1415.25779       0.8076       0.6879
   1415.24253       0.7887       0.7671    1415.24253       0.7887       0.7670
   1415.22727       0.8469       0.6558    1415.22727       0.8469       0.6558
   1415.21201       0.8259       0.7086    1415.21201       0.8259       0.7086
   1415.19675       0.7811       0.6926    1415.19675       0.7811       0.6926
   1415.18149       0.8281       0.6093    1415.18149       0.8281       0.6093
   1415.16624       0.7923       0.6335    1415.16624       0.7923       0.6335
   1415.15098       0.8148       0.6131    1415.15098       0.8148       0.6131
   1415.13572       0.7972       0.7061    1415.13572       0.7972       0.7061
   1415.12046       0.8468       0.6231    1415.12046       0.8468       0.6231
   1415.10520       0.8024       0.6406    1415.10520       0.8024       0.6406
   1415.08994       0.8120       0.7237    1415.08994       0.8119       0.7236
   1415.07468       0.8324       0.6509    1415.07468       0.8324       0.6508
   1415.05942       0.8146       0.6658    1415.05942       0.8145       0.6657
   1415.04417       0.7928       0.7009    1415.04417       0.7928       0.7009
   1415.02891       0.8563       0.6775    1415.02891       0.8563       0.6775
   1415.01365       0.8289       0.6806    1415.01365       0.8289       0.6805
   1414.99839       0.7719       0.6082    1414.99839       0.7719       0.6082
   1414.98313       0.7784       0.7299    1414.98313       0.7784       0.7298
   1414.96787       0.7966       0.7636    1414.96787       0.7966       0.7635
   1414.95261       0.7654       0.7256    1414.95261       0.7654       0.7255
   1414.93735       0.7775       0.8121    1414.93735       0.7775       0.8120
   1414.92209       0.7934       0.6952    1414.92209       0.7934       0.6952
   1414.90684       0.8522       0.6722    1414.90684       0.8522       0.6722
   1414.89158       0.8284       0.6344    1414.89158       0.8284       0.6344
   1414.87632       0.8765       0.6849    1414.87632       0.8765       0.6849
   1414.86106       0.8106       0.6846    1414.86106       0.8106       0.6845
   1414.84580       0.8929       0.7770    1414.84580       0.8929       0.7769
   1414.83054       0.8258       0.6624    1414.83054       0.8258       0.6624
   1414.81528       0.9031       0.6604    1414.81528       0.9030       0.6604
   1414.80002       0.7302       0.8780    1414.80002       0.7301       0.8779
   1414.78477       0.7448       0.7102    1414.78477       0.7448       0.7101
   1414.76951       0.7889       0.6058    1414.76951       0.7889       0.6057
   1414.75425       0.8767       0.7193    1414.75425       0.8767       0.7192
   1414.73899       0.8707       0.7767    1414.73899       0.8707       0.7767
   1414.72373       0.8855       0.7014    1414.72373       0.8855       0.7014
   1414.70847       0.8536       0.7031    1414.70847       0.8536       0.7030
   1414.69321       0.8007       0.6702    1414.69321       0.8007       0.6702
   1414.67795       0.8225       0.6930    1414.67795       0.8225       0.6930
   1414.66270       0.8692       0.7390    1414.66270       0.8692       0.7389
   1414.64744       0.9151       0.6544    1414.64744       0.9150       0.6543
   1414.63218       0.8521       0.7766    1414.63218       0.8521       0.7765
   1414.61692       0.8654       0.7230    1414.61692       0.8654       0.7230
   1414.60166       0.8332       0.7455    1414.60166       0.8332       0.7454
   1414.58640       0.8708       0.7486    1414.58640       0.8708       0.7485
   1414.57114       0.8777       0.6961    1414.57114       0.8777       0.6961
   1414.55588       0.9139       0.6011    1414.55588       0.9139       0.6011
   1414.54062       0.8349       0.7224    1414.54062       0.8349       0.7223
   1414.52537       0.9169       0.6594    1414.52537       0.9169       0.6593
   1414.51011       0.8998       0.6634    1414.51011       0.8998       0.6633
   1414.49485       0.8464       0.8113    1414.49485       0.8464       0.8112
   1414.47959       0.8225       0.6368    1414.47959       0.8225       0.6367
   1414.46433       0.8314       0.6427    1414.46433       0.8314       0.6426
   1414.44907       0.8812       0.5511    1414.44907       0.8812       0.5511
   1414.43381       0.8456       0.6881    1414.43381       0.8456       0.6880
   1414.41855       0.9430       0.6321    1414.41855       0.9430       0.6321
   1414.40330       0.8495       0.8241    1414.40330       0.8495       0.8240
   1414.38804       0.8460       0.5830    1414.38804       0.8460       0.5830
   1414.37278       0.8709       0.6832    1414.37278       0.8709       0.6832
   1414.35752       0.8506       0.7524    1414.35752       0.8506       0.7523
   1414.34226       0.8112       0.7287    1414.34226       0.8112       0.7286
   1414.32700       0.8714       0.7409    1414.32700       0.8714       0.7408
   1414.31174       0.8666       0.7013    1414.31174       0.8666       0.7012
   1414.29648       0.7782       0.7921    1414.29648       0.7782       0.7921
   1414.28123       0.8507       0.6265    1414.28123       0.8507       0.6265
   1414.26597       0.8360       0.6085    1414.26597       0.8360       0.6084
   1414.25071       0.8892       0.7164    1414.25071       0.8892       0.7163
   1414.23545       0.7389       0.6551    1414.23545       0.7389       0.6551
   1414.22019       0.8088       0.6096    1414.22019       0.8088       0.6096
   1414.20493       0.8241       0.7157    1414.20493       0.8241       0.7156
   1414.18967       0.8571       0.7369    1414.18967       0.8571       0.7369
   1414.17441       0.8743       0.6805    1414.17441       0.8743       0.6805
   1414.15916       0.8590       0.7397    1414.15916       0.8590       0.7397
   1414.14390       0.9094       0.6751    1414.14390       0.9094       0.6750
   1414.12864       0.8365       0.6273    1414.12864       0.8365       0.6273
   1414.11338       0.8305       0.7836    1414.11338       0.8305       0.7836
   1414.09812       0.8133       0.6028    1414.09812       0.8133       0.6028
   1414.08286       0.7766       0.6712    1414.08286       0.7766       0.6711
   1414.06760       0.9663       0.7321    1414.06760       0.9663       0.7321
   1414.05234       0.8525       0.8062    1414.05234       0.8525       0.8061
   1414.03708       0.7862       0.5966    1414.03708       0.7862       0.5966
   1414.02183       0.7090       0.7751    1414.02183       0.7090       0.7751
   1414.00657       0.8738       0.7560    1414.00657       0.8738       0.7559
   1413.99131       0.8149       0.7286    1413.99131       0.8149       0.7286
   1413.97605       0.9116       0.6741    1413.97605       0.9116       0.6740
   1413.96079       0.9103       0.7851    1413.96079       0.9102       0.7851
   1413.94553       0.8922       0.6833    1413.94553       0.8922       0.6833
   1413.93027       0.9068       0.7572    1413.93027       0.9067       0.7572
   1413.91501       0.8838       0.8076    1413.91501       0.8838       0.8076
   1413.89976       0.9362       0.7296    1413.89976       0.9362       0.7296
   1413.88450       0.8279       0.8023    1413.88450       0.8279       0.8023
   1413.86924       0.8553       0.6797    1413.86924       0.8553       0.6797
   1413.85398       0.7973       0.7242    1413.85398       0.7973       0.7242
   1413.83872       0.8931       0.6833    1413.83872       0.8931       0.6832
   1413.82346       0.8341       0.6523    1413.82346       0.8341       0.6523
   1413.80820       0.8422       0.6614    1413.80820       0.8422       0.6614
   1413.79294       0.8439       0.7500    1413.79294       0.8439       0.7499
   1413.77769       0.7356       0.7660    1413.77769       0.7356       0.7659
   1413.76243       0.8541       0.7024    1413.76243       0.8541       0.7024
   1413.74717       0.7717       0.7280    1413.74717       0.7717       0.7279
   1413.73191       0.7846       0.6149    1413.73191       0.7846       0.6148
   1413.71665       0.8776       0.6889    1413.71665       0.8776       0.6888
   1413.70139       0.8180       0.7398    1413.70139       0.8180       0.7398
   1413.68613       0.8270       0.7800    1413.68613       0.8270       0.7800
   1413.67087       0.9049       0.7539    1413.67087       0.9048       0.7538
   1413.65562       0.8989       0.7301    1413.65562       0.8989       0.7301
   1413.64036       0.7894       0.7354    1413.64036       0.7894       0.7354
   1413.62510       0.9352       0.7500    1413.62510       0.9352       0.7499
   1413.60984       0.8865       0.7363    1413.60984       0.8865       0.7363
   1413.59458       0.7932       0.7706    1413.59458       0.7931       0.7706
   1413.57932       0.8550       0.7277    1413.57932       0.8550       0.7277
   1413.56406       0.8512       0.8011    1413.56406       0.8511       0.8011
   1413.54880       0.8818       0.6091    1413.54880       0.8818       0.6091
   1413.53354       0.8753       0.8512    1413.53354       0.8753       0.8511
   1413.51829       0.8355       0.7392    1413.51829       0.8355       0.7391
   1413.50303       0.9192       0.7459    1413.50303       0.9192       0.7458
   1413.48777       0.8962       0.7918    1413.48777       0.8962       0.7917
   1413.47251       0.7725       0.6480    1413.47251       0.7725       0.6480
   1413.45725       0.8747       0.8481    1413.45725       0.8747       0.8480
   1413.44199       0.8188       0.8294    1413.44199       0.8188       0.8294
   1413.42673       0.7853       0.6790    1413.42673       0.7853       0.6790
   1413.41147       0.8263       0.8943    1413.41147       0.8263       0.8943
   1413.39622       0.8670       0.7492    1413.39622       0.8670       0.7491
