#     FILENAME=Skynet_59002_M31_15kpcRadiusB_45048_54637.A.onoff.cal.txt
#     BASENAME=Skynet_59002_M31_15kpcRadiusB_45048_54637
#      CONTROL=SKYNET
#     PROJCODE=Skynet_59002_M31_15kpcRadiusB_45048
#     DATAROOT=/raid/scratch/cyborg/SkynetData
#      DATADIR=/raid/scratch/cyborg
#     DATADIR2=/raid/scratch/cyborg/SkynetData/Skynet_59002_M31_15kpcRadiusB_4
#     SCANNAME=2018_05_24_20
#     SRC_NAME=M31_15kpcRadiusB
#     OBSERVER=unioncollege_21317
#     DATE_OBS=2020-06-02T07:55:30.510
#        OBSID=45048
#      SCANNUM=54637
#          MJD=59002.3302142
#          UTC=28531
#     SCANTYPE=onoff
#     DATAMODE=HIRES
#     RECEIVER=Rx1_2
#      OBSFREQ=1395.0000
# Actual_FREQ1=1423.0000,
# Actual_FREQ2=1423.0000
#    LO1Tuning=6873.0000
#     RFFILTER=1355_1435
#        OBSBW=-15.6250
#     EFFBANDW=15.6250
#        NCHAN=1024
#    STARTCHAN=51
#     STOPCHAN=972
#         TINT=0.3000
#         TBIN=0.00419430
#       ACCLEN=2048 
#     DURATION=168.30
#     EXPOSURE=125.08
#        FOCUS=37.071
#       RA,DEC=00:39:24.13, 40:23:54.81
#      RA(deg)=8.46624
#     DEC(deg)=40.39817
#   WIDTH(deg)=2.0311x0.0224
#    AZIM(deg)=60.5557
#    ELEV(deg)=31.6569
#     COORDREF=RA_DEC_
#         HREF=9.7797
#         VREF=40.3982
#      RADESYS=FK5
#       OFFSYS=RADEC
#      EQUINOX=2000.00
#     IFATTENS=21.00, 5.00
#   BALANCELEV=1.200 
#   POWER_XLYR=[1.26, 1.05] 
#       VELDEF=RADI-OBS 
#     VELOCITY=0.000 
#         NPOL=2 
#      POLMODE=Linear 
#      POLTYPE=XXYY 
#      WARNING=None 
#     NOISECAL=HI 
#       PRECAL=2 
#      POSTCAL=2 
#     CRYOTEMP=14 
#      BOXTEMP=23 
#         TSYS=XX1:37.60, YY1:37.83
#         TSYS=XX2:37.60, YY2:37.82
#         TCAL=XX1:9.18, YY1:10.14
#         TCAL=XX2:9.18, YY2:10.14
# Calibrated spectra: Tsys*(ON-OFF)/OFF 
#                
#                
#Freq1(MHz)         XX1          YY1   Freq2(MHz)       XX2         YY2 
   1430.03430       0.3974       0.4720    1430.03430       0.3974       0.4719
   1430.01904       0.3638       0.4192    1430.01904       0.3638       0.4191
   1430.00378       0.3555       0.5449    1430.00378       0.3555       0.5448
   1429.98853       0.4458       0.4913    1429.98853       0.4457       0.4913
   1429.97327       0.3349       0.3640    1429.97327       0.3349       0.3640
   1429.95801       0.3684       0.4978    1429.95801       0.3684       0.4977
   1429.94275       0.4528       0.4782    1429.94275       0.4528       0.4781
   1429.92749       0.3374       0.4680    1429.92749       0.3374       0.4679
   1429.91223       0.3655       0.4961    1429.91223       0.3655       0.4961
   1429.89697       0.3248       0.5289    1429.89697       0.3248       0.5289
   1429.88171       0.2814       0.3935    1429.88171       0.2814       0.3934
   1429.86646       0.3923       0.5588    1429.86646       0.3923       0.5588
   1429.85120       0.3962       0.4569    1429.85120       0.3962       0.4568
   1429.83594       0.2785       0.4918    1429.83594       0.2785       0.4917
   1429.82068       0.3306       0.4700    1429.82068       0.3306       0.4700
   1429.80542       0.4241       0.5605    1429.80542       0.4241       0.5604
   1429.79016       0.3862       0.3303    1429.79016       0.3862       0.3302
   1429.77490       0.4571       0.4809    1429.77490       0.4571       0.4809
   1429.75964       0.4222       0.5705    1429.75964       0.4222       0.5704
   1429.74438       0.3306       0.5655    1429.74438       0.3306       0.5654
   1429.72913       0.3048       0.5437    1429.72913       0.3048       0.5436
   1429.71387       0.3314       0.5302    1429.71387       0.3314       0.5301
   1429.69861       0.4146       0.4930    1429.69861       0.4146       0.4929
   1429.68335       0.3220       0.4512    1429.68335       0.3220       0.4511
   1429.66809       0.2862       0.5312    1429.66809       0.2862       0.5312
   1429.65283       0.3124       0.4674    1429.65283       0.3124       0.4673
   1429.63757       0.3473       0.4950    1429.63757       0.3473       0.4949
   1429.62231       0.3708       0.4838    1429.62231       0.3708       0.4838
   1429.60706       0.3780       0.4730    1429.60706       0.3780       0.4729
   1429.59180       0.4099       0.5655    1429.59180       0.4099       0.5655
   1429.57654       0.3599       0.5101    1429.57654       0.3599       0.5100
   1429.56128       0.3036       0.5016    1429.56128       0.3036       0.5016
   1429.54602       0.3353       0.6151    1429.54602       0.3353       0.6151
   1429.53076       0.2848       0.4517    1429.53076       0.2848       0.4516
   1429.51550       0.3517       0.4767    1429.51550       0.3517       0.4766
   1429.50024       0.4117       0.5287    1429.50024       0.4117       0.5287
   1429.48499       0.3501       0.5359    1429.48499       0.3501       0.5358
   1429.46973       0.3472       0.4974    1429.46973       0.3472       0.4974
   1429.45447       0.3234       0.5653    1429.45447       0.3234       0.5653
   1429.43921       0.3123       0.5307    1429.43921       0.3123       0.5307
   1429.42395       0.4604       0.4758    1429.42395       0.4604       0.4758
   1429.40869       0.4248       0.5183    1429.40869       0.4248       0.5182
   1429.39343       0.3781       0.5791    1429.39343       0.3781       0.5790
   1429.37817       0.4492       0.3964    1429.37817       0.4492       0.3964
   1429.36292       0.4518       0.4574    1429.36292       0.4518       0.4573
   1429.34766       0.3291       0.4254    1429.34766       0.3291       0.4254
   1429.33240       0.3481       0.5939    1429.33240       0.3481       0.5939
   1429.31714       0.4166       0.6063    1429.31714       0.4166       0.6063
   1429.30188       0.4719       0.4533    1429.30188       0.4719       0.4532
   1429.28662       0.4368       0.4321    1429.28662       0.4368       0.4320
   1429.27136       0.3991       0.5676    1429.27136       0.3991       0.5675
   1429.25610       0.4819       0.4849    1429.25610       0.4819       0.4849
   1429.24084       0.4518       0.5314    1429.24084       0.4518       0.5314
   1429.22559       0.3374       0.4778    1429.22559       0.3374       0.4777
   1429.21033       0.3885       0.4876    1429.21033       0.3885       0.4875
   1429.19507       0.2882       0.5757    1429.19507       0.2882       0.5756
   1429.17981       0.2864       0.5809    1429.17981       0.2864       0.5809
   1429.16455       0.3792       0.5353    1429.16455       0.3792       0.5353
   1429.14929       0.4617       0.5003    1429.14929       0.4617       0.5002
   1429.13403       0.4877       0.4477    1429.13403       0.4877       0.4476
   1429.11877       0.4689       0.5891    1429.11877       0.4689       0.5891
   1429.10352       0.4003       0.5718    1429.10352       0.4003       0.5717
   1429.08826       0.4330       0.6166    1429.08826       0.4330       0.6165
   1429.07300       0.3733       0.4802    1429.07300       0.3733       0.4801
   1429.05774       0.4627       0.5761    1429.05774       0.4627       0.5760
   1429.04248       0.4399       0.6051    1429.04248       0.4399       0.6050
   1429.02722       0.4278       0.5987    1429.02722       0.4278       0.5986
   1429.01196       0.3493       0.4810    1429.01196       0.3493       0.4810
   1428.99670       0.4916       0.4287    1428.99670       0.4916       0.4287
   1428.98145       0.4673       0.5210    1428.98145       0.4673       0.5209
   1428.96619       0.4778       0.5056    1428.96619       0.4778       0.5056
   1428.95093       0.4206       0.5816    1428.95093       0.4206       0.5815
   1428.93567       0.4848       0.5964    1428.93567       0.4848       0.5963
   1428.92041       0.4650       0.6243    1428.92041       0.4650       0.6242
   1428.90515       0.4710       0.5405    1428.90515       0.4710       0.5404
   1428.88989       0.4424       0.5340    1428.88989       0.4424       0.5339
   1428.87463       0.4285       0.5094    1428.87463       0.4284       0.5093
   1428.85938       0.4717       0.5570    1428.85938       0.4717       0.5569
   1428.84412       0.4151       0.4770    1428.84412       0.4151       0.4769
   1428.82886       0.3560       0.6207    1428.82886       0.3560       0.6206
   1428.81360       0.5244       0.5390    1428.81360       0.5244       0.5390
   1428.79834       0.5255       0.5790    1428.79834       0.5255       0.5789
   1428.78308       0.4902       0.5053    1428.78308       0.4902       0.5053
   1428.76782       0.5248       0.4768    1428.76782       0.5248       0.4767
   1428.75256       0.4413       0.5640    1428.75256       0.4413       0.5639
   1428.73730       0.5166       0.4572    1428.73730       0.5166       0.4572
   1428.72205       0.5171       0.6695    1428.72205       0.5171       0.6694
   1428.70679       0.4220       0.5028    1428.70679       0.4220       0.5028
   1428.69153       0.4910       0.4824    1428.69153       0.4910       0.4823
   1428.67627       0.4424       0.5102    1428.67627       0.4424       0.5101
   1428.66101       0.5153       0.4647    1428.66101       0.5153       0.4646
   1428.64575       0.5871       0.5221    1428.64575       0.5871       0.5221
   1428.63049       0.4609       0.5522    1428.63049       0.4609       0.5522
   1428.61523       0.4845       0.5480    1428.61523       0.4845       0.5480
   1428.59998       0.6432       0.5145    1428.59998       0.6432       0.5144
   1428.58472       0.5570       0.4790    1428.58472       0.5570       0.4789
   1428.56946       0.4840       0.5461    1428.56946       0.4840       0.5461
   1428.55420       0.6270       0.4482    1428.55420       0.6270       0.4482
   1428.53894       0.5990       0.4580    1428.53894       0.5990       0.4579
   1428.52368       0.5880       0.5146    1428.52368       0.5880       0.5145
   1428.50842       0.4993       0.4748    1428.50842       0.4993       0.4748
   1428.49316       0.5261       0.5244    1428.49316       0.5261       0.5244
   1428.47791       0.4926       0.5357    1428.47791       0.4926       0.5357
   1428.46265       0.6046       0.4855    1428.46265       0.6046       0.4855
   1428.44739       0.5133       0.5246    1428.44739       0.5132       0.5245
   1428.43213       0.4651       0.5126    1428.43213       0.4651       0.5126
   1428.41687       0.4811       0.4753    1428.41687       0.4811       0.4753
   1428.40161       0.4947       0.5013    1428.40161       0.4947       0.5012
   1428.38635       0.5677       0.5050    1428.38635       0.5677       0.5049
   1428.37109       0.6098       0.5511    1428.37109       0.6098       0.5510
   1428.35583       0.5702       0.5998    1428.35583       0.5702       0.5997
   1428.34058       0.6438       0.4095    1428.34058       0.6438       0.4095
   1428.32532       0.5545       0.4022    1428.32532       0.5545       0.4021
   1428.31006       0.5099       0.5415    1428.31006       0.5099       0.5415
   1428.29480       0.5210       0.5737    1428.29480       0.5210       0.5736
   1428.27954       0.5361       0.5593    1428.27954       0.5361       0.5592
   1428.26428       0.4911       0.5145    1428.26428       0.4911       0.5145
   1428.24902       0.5813       0.5398    1428.24902       0.5813       0.5397
   1428.23376       0.5892       0.5382    1428.23376       0.5892       0.5382
   1428.21851       0.6259       0.5913    1428.21851       0.6259       0.5912
   1428.20325       0.5620       0.5530    1428.20325       0.5620       0.5530
   1428.18799       0.5509       0.5776    1428.18799       0.5509       0.5775
   1428.17273       0.6401       0.5432    1428.17273       0.6401       0.5432
   1428.15747       0.5790       0.5735    1428.15747       0.5790       0.5735
   1428.14221       0.5454       0.5383    1428.14221       0.5454       0.5382
   1428.12695       0.6463       0.5555    1428.12695       0.6463       0.5554
   1428.11169       0.5227       0.5806    1428.11169       0.5227       0.5805
   1428.09644       0.6622       0.6431    1428.09644       0.6622       0.6430
   1428.08118       0.5282       0.5982    1428.08118       0.5282       0.5981
   1428.06592       0.5396       0.6047    1428.06592       0.5396       0.6046
   1428.05066       0.6041       0.5883    1428.05066       0.6041       0.5882
   1428.03540       0.5909       0.6035    1428.03540       0.5909       0.6034
   1428.02014       0.5913       0.5583    1428.02014       0.5913       0.5583
   1428.00488       0.6194       0.5833    1428.00488       0.6194       0.5832
   1427.98962       0.5880       0.5584    1427.98962       0.5880       0.5583
   1427.97437       0.5606       0.5046    1427.97437       0.5606       0.5046
   1427.95911       0.5369       0.5258    1427.95911       0.5369       0.5258
   1427.94385       0.5301       0.6251    1427.94385       0.5301       0.6250
   1427.92859       0.5887       0.6651    1427.92859       0.5887       0.6650
   1427.91333       0.5317       0.5904    1427.91333       0.5317       0.5903
   1427.89807       0.4846       0.6143    1427.89807       0.4846       0.6142
   1427.88281       0.5623       0.6436    1427.88281       0.5623       0.6436
   1427.86755       0.5818       0.5664    1427.86755       0.5818       0.5663
   1427.85229       0.6319       0.5832    1427.85229       0.6319       0.5831
   1427.83704       0.5730       0.6593    1427.83704       0.5730       0.6592
   1427.82178       0.6731       0.5259    1427.82178       0.6730       0.5259
   1427.80652       0.5957       0.5831    1427.80652       0.5957       0.5830
   1427.79126       0.6119       0.5351    1427.79126       0.6119       0.5350
   1427.77600       0.6068       0.5549    1427.77600       0.6068       0.5548
   1427.76074       0.5586       0.5042    1427.76074       0.5586       0.5041
   1427.74548       0.6389       0.5196    1427.74548       0.6389       0.5196
   1427.73022       0.5325       0.5871    1427.73022       0.5325       0.5871
   1427.71497       0.5031       0.5570    1427.71497       0.5031       0.5570
   1427.69971       0.6008       0.5919    1427.69971       0.6008       0.5919
   1427.68445       0.5315       0.6398    1427.68445       0.5315       0.6398
   1427.66919       0.6161       0.6158    1427.66919       0.6161       0.6157
   1427.65393       0.5858       0.5553    1427.65393       0.5858       0.5552
   1427.63867       0.6364       0.5955    1427.63867       0.6364       0.5954
   1427.62341       0.5938       0.6611    1427.62341       0.5938       0.6611
   1427.60815       0.5393       0.5892    1427.60815       0.5393       0.5891
   1427.59290       0.6043       0.6061    1427.59290       0.6043       0.6060
   1427.57764       0.5721       0.5396    1427.57764       0.5721       0.5395
   1427.56238       0.6001       0.6433    1427.56238       0.6001       0.6432
   1427.54712       0.6502       0.7054    1427.54712       0.6502       0.7053
   1427.53186       0.5585       0.6948    1427.53186       0.5585       0.6947
   1427.51660       0.6079       0.5827    1427.51660       0.6079       0.5826
   1427.50134       0.6166       0.6811    1427.50134       0.6166       0.6810
   1427.48608       0.6341       0.6402    1427.48608       0.6341       0.6401
   1427.47083       0.5618       0.6326    1427.47083       0.5618       0.6326
   1427.45557       0.6755       0.6467    1427.45557       0.6755       0.6466
   1427.44031       0.6712       0.6389    1427.44031       0.6712       0.6388
   1427.42505       0.5902       0.5709    1427.42505       0.5902       0.5708
   1427.40979       0.5436       0.5317    1427.40979       0.5436       0.5316
   1427.39453       0.5997       0.6309    1427.39453       0.5997       0.6309
   1427.37927       0.6165       0.6581    1427.37927       0.6165       0.6580
   1427.36401       0.5630       0.6184    1427.36401       0.5630       0.6183
   1427.34875       0.6830       0.6078    1427.34875       0.6830       0.6078
   1427.33350       0.6339       0.6544    1427.33350       0.6339       0.6544
   1427.31824       0.6172       0.5579    1427.31824       0.6172       0.5579
   1427.30298       0.5987       0.6399    1427.30298       0.5987       0.6398
   1427.28772       0.5868       0.6860    1427.28772       0.5868       0.6859
   1427.27246       0.6279       0.6781    1427.27246       0.6279       0.6780
   1427.25720       0.6643       0.6587    1427.25720       0.6643       0.6586
   1427.24194       0.6581       0.6400    1427.24194       0.6581       0.6399
   1427.22668       0.6647       0.6876    1427.22668       0.6647       0.6876
   1427.21143       0.6488       0.6796    1427.21143       0.6488       0.6795
   1427.19617       0.5838       0.6744    1427.19617       0.5838       0.6743
   1427.18091       0.6043       0.6689    1427.18091       0.6043       0.6688
   1427.16565       0.6207       0.6526    1427.16565       0.6207       0.6525
   1427.15039       0.6060       0.6200    1427.15039       0.6060       0.6199
   1427.13513       0.6011       0.6240    1427.13513       0.6011       0.6240
   1427.11987       0.6557       0.6041    1427.11987       0.6557       0.6041
   1427.10461       0.6134       0.5842    1427.10461       0.6134       0.5842
   1427.08936       0.6920       0.6600    1427.08936       0.6920       0.6600
   1427.07410       0.5295       0.6543    1427.07410       0.5295       0.6543
   1427.05884       0.5785       0.6148    1427.05884       0.5785       0.6148
   1427.04358       0.6856       0.6266    1427.04358       0.6856       0.6265
   1427.02832       0.6727       0.5357    1427.02832       0.6727       0.5356
   1427.01306       0.6394       0.6819    1427.01306       0.6394       0.6818
   1426.99780       0.6356       0.5878    1426.99780       0.6356       0.5878
   1426.98254       0.6858       0.6457    1426.98254       0.6858       0.6456
   1426.96729       0.5913       0.5916    1426.96729       0.5913       0.5915
   1426.95203       0.6070       0.6286    1426.95203       0.6070       0.6286
   1426.93677       0.6831       0.6810    1426.93677       0.6831       0.6809
   1426.92151       0.6211       0.6503    1426.92151       0.6211       0.6502
   1426.90625       0.6273       0.7209    1426.90625       0.6273       0.7208
   1426.89099       0.5976       0.6686    1426.89099       0.5976       0.6685
   1426.87573       0.6716       0.5569    1426.87573       0.6716       0.5568
   1426.86047       0.6356       0.6851    1426.86047       0.6356       0.6850
   1426.84521       0.6368       0.7046    1426.84521       0.6368       0.7046
   1426.82996       0.6361       0.6383    1426.82996       0.6361       0.6382
   1426.81470       0.5714       0.5628    1426.81470       0.5714       0.5627
   1426.79944       0.6352       0.6512    1426.79944       0.6352       0.6511
   1426.78418       0.5995       0.6306    1426.78418       0.5995       0.6305
   1426.76892       0.6288       0.6341    1426.76892       0.6288       0.6340
   1426.75366       0.6380       0.5986    1426.75366       0.6380       0.5985
   1426.73840       0.5560       0.5493    1426.73840       0.5560       0.5492
   1426.72314       0.5615       0.5691    1426.72314       0.5615       0.5690
   1426.70789       0.6167       0.5986    1426.70789       0.6167       0.5985
   1426.69263       0.5281       0.6395    1426.69263       0.5281       0.6394
   1426.67737       0.6231       0.6953    1426.67737       0.6230       0.6952
   1426.66211       0.6262       0.6880    1426.66211       0.6262       0.6879
   1426.64685       0.6062       0.6762    1426.64685       0.6062       0.6761
   1426.63159       0.5179       0.5602    1426.63159       0.5179       0.5601
   1426.61633       0.6272       0.7584    1426.61633       0.6272       0.7583
   1426.60107       0.6057       0.6477    1426.60107       0.6057       0.6476
   1426.58582       0.6610       0.6265    1426.58582       0.6610       0.6264
   1426.57056       0.5832       0.6279    1426.57056       0.5832       0.6278
   1426.55530       0.6204       0.6546    1426.55530       0.6204       0.6545
   1426.54004       0.5743       0.5909    1426.54004       0.5743       0.5908
   1426.52478       0.5894       0.8120    1426.52478       0.5894       0.8119
   1426.50952       0.5346       0.6967    1426.50952       0.5346       0.6966
   1426.49426       0.5772       0.6995    1426.49426       0.5772       0.6994
   1426.47900       0.6591       0.6875    1426.47900       0.6591       0.6874
   1426.46375       0.7303       0.6299    1426.46375       0.7303       0.6298
   1426.44849       0.5882       0.6784    1426.44849       0.5882       0.6783
   1426.43323       0.5578       0.6544    1426.43323       0.5578       0.6543
   1426.41797       0.6464       0.7524    1426.41797       0.6464       0.7523
   1426.40271       0.6412       0.7401    1426.40271       0.6412       0.7401
   1426.38745       0.5507       0.6854    1426.38745       0.5507       0.6854
   1426.37219       0.5516       0.6529    1426.37219       0.5516       0.6528
   1426.35693       0.5465       0.7039    1426.35693       0.5465       0.7038
   1426.34167       0.5179       0.6537    1426.34167       0.5178       0.6536
   1426.32642       0.6043       0.6342    1426.32642       0.6043       0.6341
   1426.31116       0.5654       0.5898    1426.31116       0.5654       0.5897
   1426.29590       0.5926       0.6559    1426.29590       0.5926       0.6558
   1426.28064       0.5769       0.7109    1426.28064       0.5769       0.7108
   1426.26538       0.5393       0.7383    1426.26538       0.5393       0.7382
   1426.25012       0.6036       0.7063    1426.25012       0.6036       0.7063
   1426.23486       0.5627       0.6859    1426.23486       0.5627       0.6858
   1426.21960       0.6041       0.6483    1426.21960       0.6041       0.6483
   1426.20435       0.5485       0.7539    1426.20435       0.5485       0.7538
   1426.18909       0.5891       0.6496    1426.18909       0.5891       0.6495
   1426.17383       0.5587       0.6553    1426.17383       0.5587       0.6552
   1426.15857       0.5720       0.6933    1426.15857       0.5720       0.6932
   1426.14331       0.5790       0.6799    1426.14331       0.5789       0.6798
   1426.12805       0.5049       0.7098    1426.12805       0.5049       0.7097
   1426.11279       0.5793       0.7204    1426.11279       0.5793       0.7203
   1426.09753       0.5881       0.6161    1426.09753       0.5881       0.6160
   1426.08228       0.6118       0.6717    1426.08228       0.6118       0.6717
   1426.06702       0.5422       0.6442    1426.06702       0.5422       0.6441
   1426.05176       0.5167       0.6357    1426.05176       0.5167       0.6356
   1426.03650       0.5899       0.6198    1426.03650       0.5899       0.6198
   1426.02124       0.5862       0.6981    1426.02124       0.5862       0.6980
   1426.00598       0.5238       0.6452    1426.00598       0.5238       0.6452
   1425.99072       0.5549       0.6397    1425.99072       0.5549       0.6397
   1425.97546       0.5322       0.7424    1425.97546       0.5322       0.7424
   1425.96021       0.4173       0.6864    1425.96021       0.4173       0.6863
   1425.94495       0.4932       0.6916    1425.94495       0.4932       0.6915
   1425.92969       0.5402       0.7203    1425.92969       0.5402       0.7202
   1425.91443       0.4551       0.6531    1425.91443       0.4551       0.6530
   1425.89917       0.6087       0.6736    1425.89917       0.6087       0.6735
   1425.88391       0.5147       0.6024    1425.88391       0.5147       0.6024
   1425.86865       0.4810       0.6341    1425.86865       0.4810       0.6340
   1425.85339       0.5603       0.6826    1425.85339       0.5603       0.6826
   1425.83813       0.4987       0.6191    1425.83813       0.4987       0.6190
   1425.82288       0.5941       0.6900    1425.82288       0.5941       0.6900
   1425.80762       0.5089       0.6937    1425.80762       0.5089       0.6936
   1425.79236       0.5889       0.5995    1425.79236       0.5889       0.5994
   1425.77710       0.5170       0.7251    1425.77710       0.5170       0.7250
   1425.76184       0.5440       0.6488    1425.76184       0.5440       0.6487
   1425.74658       0.4996       0.6534    1425.74658       0.4996       0.6533
   1425.73132       0.5540       0.6625    1425.73132       0.5540       0.6624
   1425.71606       0.4587       0.7028    1425.71606       0.4587       0.7027
   1425.70081       0.5503       0.6174    1425.70081       0.5503       0.6173
   1425.68555       0.4921       0.6463    1425.68555       0.4921       0.6462
   1425.67029       0.5227       0.6544    1425.67029       0.5227       0.6543
   1425.65503       0.5438       0.5903    1425.65503       0.5438       0.5902
   1425.63977       0.5936       0.6003    1425.63977       0.5936       0.6002
   1425.62451       0.5095       0.6775    1425.62451       0.5095       0.6774
   1425.60925       0.5743       0.6866    1425.60925       0.5743       0.6865
   1425.59399       0.5421       0.5931    1425.59399       0.5421       0.5930
   1425.57874       0.5116       0.5976    1425.57874       0.5116       0.5976
   1425.56348       0.4677       0.6903    1425.56348       0.4677       0.6902
   1425.54822       0.4625       0.6258    1425.54822       0.4625       0.6257
   1425.53296       0.4239       0.6219    1425.53296       0.4239       0.6218
   1425.51770       0.4673       0.6450    1425.51770       0.4673       0.6450
   1425.50244       0.5694       0.6646    1425.50244       0.5694       0.6645
   1425.48718       0.4745       0.6096    1425.48718       0.4745       0.6096
   1425.47192       0.4618       0.6806    1425.47192       0.4618       0.6805
   1425.45667       0.5031       0.6197    1425.45667       0.5031       0.6197
   1425.44141       0.5472       0.7084    1425.44141       0.5472       0.7083
   1425.42615       0.4429       0.7072    1425.42615       0.4429       0.7071
   1425.41089       0.4805       0.6801    1425.41089       0.4805       0.6801
   1425.39563       0.5446       0.6908    1425.39563       0.5446       0.6907
   1425.38037       0.4988       0.6581    1425.38037       0.4988       0.6580
   1425.36511       0.5495       0.6373    1425.36511       0.5495       0.6372
   1425.34985       0.4578       0.7196    1425.34985       0.4578       0.7196
   1425.33459       0.4391       0.7422    1425.33459       0.4391       0.7422
   1425.31934       0.4450       0.6583    1425.31934       0.4450       0.6582
   1425.30408       0.4170       0.6859    1425.30408       0.4170       0.6859
   1425.28882       0.4518       0.6259    1425.28882       0.4518       0.6258
   1425.27356       0.4697       0.5460    1425.27356       0.4697       0.5459
   1425.25830       0.4209       0.6223    1425.25830       0.4209       0.6223
   1425.24304       0.4951       0.6181    1425.24304       0.4951       0.6180
   1425.22778       0.4552       0.6213    1425.22778       0.4552       0.6212
   1425.21252       0.4893       0.6068    1425.21252       0.4893       0.6067
   1425.19727       0.4492       0.6478    1425.19727       0.4492       0.6477
   1425.18201       0.3695       0.6709    1425.18201       0.3694       0.6708
   1425.16675       0.3760       0.5579    1425.16675       0.3760       0.5578
   1425.15149       0.4108       0.5486    1425.15149       0.4108       0.5485
   1425.13623       0.3994       0.5904    1425.13623       0.3994       0.5904
   1425.12097       0.4117       0.6040    1425.12097       0.4117       0.6039
   1425.10571       0.3493       0.6135    1425.10571       0.3493       0.6134
   1425.09045       0.4603       0.6889    1425.09045       0.4603       0.6889
   1425.07520       0.3657       0.5668    1425.07520       0.3657       0.5667
   1425.05994       0.4100       0.5427    1425.05994       0.4100       0.5426
   1425.04468       0.3725       0.6027    1425.04468       0.3725       0.6026
   1425.02942       0.4934       0.6295    1425.02942       0.4934       0.6294
   1425.01416       0.4817       0.6017    1425.01416       0.4817       0.6017
   1424.99890       0.3143       0.6595    1424.99890       0.3143       0.6594
   1424.98364       0.3554       0.6222    1424.98364       0.3554       0.6221
   1424.96838       0.3301       0.6689    1424.96838       0.3301       0.6689
   1424.95312       0.3704       0.5837    1424.95312       0.3704       0.5836
   1424.93787       0.3639       0.5808    1424.93787       0.3639       0.5807
   1424.92261       0.4045       0.6451    1424.92261       0.4045       0.6450
   1424.90735       0.4487       0.5713    1424.90735       0.4487       0.5712
   1424.89209       0.3886       0.6107    1424.89209       0.3886       0.6106
   1424.87683       0.4552       0.5225    1424.87683       0.4552       0.5225
   1424.86157       0.4206       0.4983    1424.86157       0.4206       0.4983
   1424.84631       0.3839       0.5509    1424.84631       0.3839       0.5509
   1424.83105       0.4102       0.5720    1424.83105       0.4102       0.5720
   1424.81580       0.4621       0.5356    1424.81580       0.4621       0.5356
   1424.80054       0.3870       0.5539    1424.80054       0.3870       0.5538
   1424.78528       0.2944       0.6272    1424.78528       0.2944       0.6272
   1424.77002       0.3664       0.5111    1424.77002       0.3664       0.5111
   1424.75476       0.3537       0.5777    1424.75476       0.3537       0.5776
   1424.73950       0.2506       0.6104    1424.73950       0.2506       0.6103
   1424.72424       0.4078       0.5897    1424.72424       0.4078       0.5897
   1424.70898       0.3677       0.5088    1424.70898       0.3677       0.5087
   1424.69373       0.3496       0.5044    1424.69373       0.3496       0.5044
   1424.67847       0.3229       0.6116    1424.67847       0.3229       0.6115
   1424.66321       0.3890       0.5845    1424.66321       0.3890       0.5845
   1424.64795       0.3658       0.5157    1424.64795       0.3658       0.5156
   1424.63269       0.3443       0.5840    1424.63269       0.3443       0.5839
   1424.61743       0.3018       0.5404    1424.61743       0.3018       0.5404
   1424.60217       0.2452       0.5355    1424.60217       0.2452       0.5354
   1424.58691       0.3622       0.6272    1424.58691       0.3621       0.6272
   1424.57166       0.3664       0.5158    1424.57166       0.3664       0.5158
   1424.55640       0.3142       0.5826    1424.55640       0.3142       0.5826
   1424.54114       0.3403       0.5094    1424.54114       0.3403       0.5094
   1424.52588       0.3196       0.6016    1424.52588       0.3196       0.6016
   1424.51062       0.3343       0.5069    1424.51062       0.3343       0.5069
   1424.49536       0.2770       0.5495    1424.49536       0.2770       0.5495
   1424.48010       0.4126       0.5591    1424.48010       0.4126       0.5591
   1424.46484       0.3321       0.5303    1424.46484       0.3321       0.5302
   1424.44958       0.3344       0.4884    1424.44958       0.3344       0.4883
   1424.43433       0.2436       0.5772    1424.43433       0.2436       0.5772
   1424.41907       0.2557       0.4934    1424.41907       0.2557       0.4933
   1424.40381       0.3277       0.5371    1424.40381       0.3277       0.5371
   1424.38855       0.2958       0.6221    1424.38855       0.2958       0.6220
   1424.37329       0.2867       0.5230    1424.37329       0.2867       0.5229
   1424.35803       0.3335       0.4949    1424.35803       0.3335       0.4948
   1424.34277       0.3124       0.4711    1424.34277       0.3124       0.4710
   1424.32751       0.3385       0.5102    1424.32751       0.3385       0.5101
   1424.31226       0.3122       0.4835    1424.31226       0.3122       0.4834
   1424.29700       0.3418       0.6053    1424.29700       0.3418       0.6052
   1424.28174       0.3311       0.4892    1424.28174       0.3311       0.4891
   1424.26648       0.2700       0.5595    1424.26648       0.2700       0.5594
   1424.25122       0.2493       0.5482    1424.25122       0.2493       0.5481
   1424.23596       0.3630       0.5692    1424.23596       0.3630       0.5691
   1424.22070       0.3435       0.5654    1424.22070       0.3435       0.5654
   1424.20544       0.2128       0.5245    1424.20544       0.2128       0.5244
   1424.19019       0.2923       0.4456    1424.19019       0.2923       0.4455
   1424.17493       0.2779       0.5412    1424.17493       0.2779       0.5411
   1424.15967       0.2935       0.5666    1424.15967       0.2935       0.5666
   1424.14441       0.1722       0.5613    1424.14441       0.1722       0.5613
   1424.12915       0.2619       0.4874    1424.12915       0.2619       0.4874
   1424.11389       0.2567       0.5054    1424.11389       0.2567       0.5053
   1424.09863       0.2957       0.5164    1424.09863       0.2957       0.5164
   1424.08337       0.3112       0.4944    1424.08337       0.3112       0.4943
   1424.06812       0.2328       0.5250    1424.06812       0.2328       0.5249
   1424.05286       0.2162       0.5025    1424.05286       0.2162       0.5024
   1424.03760       0.2627       0.5439    1424.03760       0.2627       0.5438
   1424.02234       0.3281       0.5219    1424.02234       0.3281       0.5219
   1424.00708       0.2195       0.4179    1424.00708       0.2195       0.4178
   1423.99182       0.2487       0.4999    1423.99182       0.2487       0.4998
   1423.97656       0.2724       0.5709    1423.97656       0.2724       0.5708
   1423.96130       0.1883       0.4756    1423.96130       0.1883       0.4755
   1423.94604       0.2220       0.4507    1423.94604       0.2220       0.4507
   1423.93079       0.2661       0.4497    1423.93079       0.2661       0.4496
   1423.91553       0.1937       0.4752    1423.91553       0.1937       0.4752
   1423.90027       0.3170       0.4764    1423.90027       0.3170       0.4764
   1423.88501       0.2125       0.4598    1423.88501       0.2125       0.4598
   1423.86975       0.2405       0.4847    1423.86975       0.2405       0.4847
   1423.85449       0.2557       0.4881    1423.85449       0.2557       0.4880
   1423.83923       0.3263       0.5070    1423.83923       0.3263       0.5069
   1423.82397       0.1695       0.4697    1423.82397       0.1695       0.4697
   1423.80872       0.2511       0.5916    1423.80872       0.2511       0.5915
   1423.79346       0.2739       0.5130    1423.79346       0.2739       0.5129
   1423.77820       0.2172       0.5372    1423.77820       0.2172       0.5371
   1423.76294       0.2793       0.5182    1423.76294       0.2793       0.5181
   1423.74768       0.3164       0.5025    1423.74768       0.3164       0.5024
   1423.73242       0.2434       0.4699    1423.73242       0.2434       0.4699
   1423.71716       0.2791       0.5284    1423.71716       0.2791       0.5283
   1423.70190       0.2488       0.4936    1423.70190       0.2488       0.4936
   1423.68665       0.2472       0.5122    1423.68665       0.2472       0.5121
   1423.67139       0.2332       0.5196    1423.67139       0.2332       0.5195
   1423.65613       0.1927       0.4483    1423.65613       0.1927       0.4482
   1423.64087       0.1775       0.5147    1423.64087       0.1775       0.5146
   1423.62561       0.2708       0.4393    1423.62561       0.2708       0.4393
   1423.61035       0.2021       0.4499    1423.61035       0.2021       0.4498
   1423.59509       0.2918       0.5208    1423.59509       0.2918       0.5208
   1423.57983       0.2057       0.5312    1423.57983       0.2057       0.5311
   1423.56458       0.2602       0.5180    1423.56458       0.2602       0.5179
   1423.54932       0.2455       0.5264    1423.54932       0.2455       0.5263
   1423.53406       0.2668       0.5079    1423.53406       0.2668       0.5078
   1423.51880       0.2623       0.4489    1423.51880       0.2623       0.4488
   1423.50354       0.2803       0.3939    1423.50354       0.2803       0.3938
   1423.48828       0.2501       0.4724    1423.48828       0.2501       0.4723
   1423.47302       0.2823       0.4589    1423.47302       0.2823       0.4589
   1423.45776       0.2125       0.4662    1423.45776       0.2125       0.4662
   1423.44250       0.2061       0.4669    1423.44250       0.2061       0.4668
   1423.42725       0.2667       0.5383    1423.42725       0.2667       0.5382
   1423.41199       0.2322       0.5472    1423.41199       0.2322       0.5471
   1423.39673       0.2352       0.4489    1423.39673       0.2352       0.4489
   1423.38147       0.2886       0.5004    1423.38147       0.2886       0.5004
   1423.36621       0.2909       0.4701    1423.36621       0.2909       0.4700
   1423.35095       0.3212       0.4979    1423.35095       0.3212       0.4978
   1423.33569       0.3590       0.4999    1423.33569       0.3590       0.4999
   1423.32043       0.3914       0.4597    1423.32043       0.3914       0.4597
   1423.30518       0.4593       0.6043    1423.30518       0.4593       0.6042
   1423.28992       0.4736       0.5913    1423.28992       0.4736       0.5913
   1423.27466       0.6280       0.7068    1423.27466       0.6280       0.7067
   1423.25940       0.7889       0.9333    1423.25940       0.7889       0.9332
   1423.24414       0.8510       1.0559    1423.24414       0.8510       1.0558
   1423.22888       1.0495       1.2446    1423.22888       1.0495       1.2444
   1423.21362       1.2496       1.3670    1423.21362       1.2496       1.3668
   1423.19836       1.6450       1.6759    1423.19836       1.6450       1.6757
   1423.18311       2.0332       2.1075    1423.18311       2.0332       2.1073
   1423.16785       2.6182       2.6363    1423.16785       2.6182       2.6360
   1423.15259       3.2544       3.2891    1423.15259       3.2544       3.2888
   1423.13733       3.8237       3.7917    1423.13733       3.8237       3.7912
   1423.12207       4.2907       4.1837    1423.12207       4.2907       4.1832
   1423.10681       4.4830       4.4412    1423.10681       4.4830       4.4407
   1423.09155       4.5896       4.5699    1423.09155       4.5896       4.5693
   1423.07629       4.7796       4.8124    1423.07629       4.7795       4.8118
   1423.06104       4.8687       4.7027    1423.06104       4.8687       4.7022
   1423.04578       4.8398       4.8100    1423.04578       4.8398       4.8094
   1423.03052       4.8352       4.6487    1423.03052       4.8351       4.6482
   1423.01526       4.7444       4.7599    1423.01526       4.7443       4.7594
   1423.00000       4.6703       4.7080    1423.00000       4.6702       4.7075
   1422.98474       4.6028       4.6990    1422.98474       4.6027       4.6984
   1422.96948       4.2280       4.2957    1422.96948       4.2280       4.2952
   1422.95422       4.0434       3.9557    1422.95422       4.0434       3.9553
   1422.93896       3.6175       3.7029    1422.93896       3.6175       3.7025
   1422.92371       3.4793       3.5520    1422.92371       3.4793       3.5516
   1422.90845       3.3041       3.1507    1422.90845       3.3041       3.1503
   1422.89319       3.0655       3.0946    1422.89319       3.0654       3.0942
   1422.87793       2.8436       2.9001    1422.87793       2.8436       2.8998
   1422.86267       2.7014       2.7311    1422.86267       2.7014       2.7308
   1422.84741       2.5494       2.5052    1422.84741       2.5493       2.5050
   1422.83215       2.3919       2.4867    1422.83215       2.3919       2.4864
   1422.81689       2.2478       2.5050    1422.81689       2.2478       2.5047
   1422.80164       2.4269       2.3980    1422.80164       2.4269       2.3978
   1422.78638       2.4029       2.4203    1422.78638       2.4029       2.4201
   1422.77112       2.3964       2.2978    1422.77112       2.3963       2.2975
   1422.75586       2.2421       2.3084    1422.75586       2.2420       2.3082
   1422.74060       2.2308       2.2084    1422.74060       2.2308       2.2082
   1422.72534       2.0688       2.3010    1422.72534       2.0688       2.3007
   1422.71008       2.1188       2.0986    1422.71008       2.1188       2.0984
   1422.69482       2.1092       2.0424    1422.69482       2.1092       2.0422
   1422.67957       2.0999       2.1013    1422.67957       2.0998       2.1010
   1422.66431       2.0487       2.0896    1422.66431       2.0487       2.0893
   1422.64905       2.0267       2.0165    1422.64905       2.0267       2.0162
   1422.63379       1.9302       1.9021    1422.63379       1.9302       1.9019
   1422.61853       1.8579       1.8640    1422.61853       1.8579       1.8638
   1422.60327       1.7598       1.8053    1422.60327       1.7598       1.8051
   1422.58801       1.6850       1.7969    1422.58801       1.6850       1.7967
   1422.57275       1.6010       1.7051    1422.57275       1.6010       1.7049
   1422.55750       1.4599       1.5885    1422.55750       1.4599       1.5883
   1422.54224       1.4963       1.5908    1422.54224       1.4963       1.5906
   1422.52698       1.3467       1.4711    1422.52698       1.3467       1.4709
   1422.51172       1.3315       1.3424    1422.51172       1.3315       1.3423
   1422.49646       1.2676       1.3836    1422.49646       1.2676       1.3835
   1422.48120       1.1484       1.3725    1422.48120       1.1484       1.3723
   1422.46594       1.0397       1.1942    1422.46594       1.0397       1.1941
   1422.45068       1.0391       1.1653    1422.45068       1.0390       1.1652
   1422.43542       0.9762       1.0022    1422.43542       0.9762       1.0020
   1422.42017       0.9899       1.0400    1422.42017       0.9899       1.0399
   1422.40491       0.8929       0.9620    1422.40491       0.8929       0.9619
   1422.38965       0.8536       0.8996    1422.38965       0.8536       0.8995
   1422.37439       0.8035       0.8103    1422.37439       0.8035       0.8102
   1422.35913       0.6431       0.8401    1422.35913       0.6431       0.8400
   1422.34387       0.6772       0.7042    1422.34387       0.6772       0.7041
   1422.32861       0.6240       0.6409    1422.32861       0.6239       0.6409
   1422.31335       0.5813       0.6921    1422.31335       0.5813       0.6920
   1422.29810       0.5551       0.6484    1422.29810       0.5551       0.6484
   1422.28284       0.5763       0.6174    1422.28284       0.5763       0.6174
   1422.26758       0.4966       0.5866    1422.26758       0.4966       0.5866
   1422.25232       0.4737       0.4909    1422.25232       0.4737       0.4909
   1422.23706       0.5015       0.5032    1422.23706       0.5015       0.5031
   1422.22180       0.4659       0.5874    1422.22180       0.4659       0.5873
   1422.20654       0.4695       0.5196    1422.20654       0.4695       0.5196
   1422.19128       0.4466       0.5750    1422.19128       0.4466       0.5749
   1422.17603       0.4099       0.4945    1422.17603       0.4099       0.4944
   1422.16077       0.3690       0.4710    1422.16077       0.3690       0.4709
   1422.14551       0.3317       0.4563    1422.14551       0.3317       0.4563
   1422.13025       0.4411       0.4082    1422.13025       0.4411       0.4082
   1422.11499       0.4360       0.4783    1422.11499       0.4360       0.4783
   1422.09973       0.3851       0.4648    1422.09973       0.3851       0.4647
   1422.08447       0.4176       0.4102    1422.08447       0.4176       0.4102
   1422.06921       0.4271       0.4409    1422.06921       0.4271       0.4409
   1422.05396       0.4331       0.4035    1422.05396       0.4331       0.4034
   1422.03870       0.4041       0.4275    1422.03870       0.4041       0.4274
   1422.02344       0.3756       0.5047    1422.02344       0.3756       0.5046
   1422.00818       0.4119       0.4336    1422.00818       0.4119       0.4335
   1421.99292       0.4292       0.4568    1421.99292       0.4292       0.4568
   1421.97766       0.4107       0.4273    1421.97766       0.4107       0.4273
   1421.96240       0.4028       0.3941    1421.96240       0.4028       0.3941
   1421.94714       0.3974       0.4302    1421.94714       0.3974       0.4301
   1421.93188       0.4216       0.4669    1421.93188       0.4216       0.4669
   1421.91663       0.5023       0.3840    1421.91663       0.5023       0.3839
   1421.90137       0.4513       0.4226    1421.90137       0.4513       0.4226
   1421.88611       0.5193       0.4445    1421.88611       0.5193       0.4445
   1421.87085       0.4384       0.4711    1421.87085       0.4384       0.4711
   1421.85559       0.4666       0.4168    1421.85559       0.4666       0.4167
   1421.84033       0.4048       0.3922    1421.84033       0.4047       0.3922
   1421.82507       0.3966       0.4818    1421.82507       0.3966       0.4818
   1421.80981       0.3656       0.4230    1421.80981       0.3656       0.4229
   1421.79456       0.4716       0.4200    1421.79456       0.4716       0.4200
   1421.77930       0.3631       0.4702    1421.77930       0.3631       0.4701
   1421.76404       0.4404       0.4855    1421.76404       0.4404       0.4854
   1421.74878       0.3348       0.4003    1421.74878       0.3348       0.4002
   1421.73352       0.4915       0.4140    1421.73352       0.4915       0.4139
   1421.71826       0.4972       0.4428    1421.71826       0.4972       0.4427
   1421.70300       0.4233       0.4895    1421.70300       0.4233       0.4895
   1421.68774       0.4510       0.3302    1421.68774       0.4510       0.3302
   1421.67249       0.4700       0.4336    1421.67249       0.4700       0.4336
   1421.65723       0.4369       0.3762    1421.65723       0.4369       0.3761
   1421.64197       0.5132       0.3949    1421.64197       0.5132       0.3949
   1421.62671       0.4761       0.4790    1421.62671       0.4761       0.4789
   1421.61145       0.4177       0.3710    1421.61145       0.4177       0.3710
   1421.59619       0.5114       0.3435    1421.59619       0.5114       0.3435
   1421.58093       0.4032       0.3506    1421.58093       0.4032       0.3506
   1421.56567       0.4194       0.3642    1421.56567       0.4194       0.3642
   1421.55042       0.4568       0.4197    1421.55042       0.4568       0.4197
   1421.53516       0.4800       0.3594    1421.53516       0.4800       0.3594
   1421.51990       0.4864       0.3799    1421.51990       0.4864       0.3799
   1421.50464       0.4943       0.4148    1421.50464       0.4942       0.4147
   1421.48938       0.4487       0.3511    1421.48938       0.4487       0.3511
   1421.47412       0.4380       0.3637    1421.47412       0.4380       0.3636
   1421.45886       0.4248       0.4054    1421.45886       0.4248       0.4054
   1421.44360       0.3012       0.4149    1421.44360       0.3012       0.4148
   1421.42834       0.4345       0.4249    1421.42834       0.4345       0.4249
   1421.41309       0.5110       0.4365    1421.41309       0.5110       0.4364
   1421.39783       0.5021       0.3815    1421.39783       0.5021       0.3815
   1421.38257       0.4552       0.4418    1421.38257       0.4552       0.4418
   1421.36731       0.4545       0.4687    1421.36731       0.4545       0.4686
   1421.35205       0.4459       0.4466    1421.35205       0.4459       0.4466
   1421.33679       0.3991       0.4573    1421.33679       0.3991       0.4573
   1421.32153       0.5464       0.4221    1421.32153       0.5464       0.4220
   1421.30627       0.4970       0.3712    1421.30627       0.4970       0.3712
   1421.29102       0.4620       0.4841    1421.29102       0.4620       0.4841
   1421.27576       0.4075       0.3555    1421.27576       0.4075       0.3555
   1421.26050       0.4471       0.4494    1421.26050       0.4471       0.4493
   1421.24524       0.4473       0.5482    1421.24524       0.4473       0.5482
   1421.22998       0.4214       0.2979    1421.22998       0.4214       0.2979
   1421.21472       0.4345       0.3976    1421.21472       0.4345       0.3976
   1421.19946       0.4885       0.3825    1421.19946       0.4885       0.3825
   1421.18420       0.4228       0.4139    1421.18420       0.4228       0.4139
   1421.16895       0.4016       0.4239    1421.16895       0.4016       0.4238
   1421.15369       0.4906       0.4293    1421.15369       0.4906       0.4293
   1421.13843       0.4711       0.4086    1421.13843       0.4711       0.4085
   1421.12317       0.4234       0.4624    1421.12317       0.4234       0.4623
   1421.10791       0.4558       0.3260    1421.10791       0.4558       0.3260
   1421.09265       0.4142       0.4140    1421.09265       0.4142       0.4140
   1421.07739       0.4168       0.4989    1421.07739       0.4168       0.4988
   1421.06213       0.3696       0.2994    1421.06213       0.3696       0.2994
   1421.04688       0.3701       0.3227    1421.04688       0.3701       0.3226
   1421.03162       0.3418       0.3161    1421.03162       0.3418       0.3161
   1421.01636       0.3127       0.3782    1421.01636       0.3127       0.3782
   1421.00110       0.2618       0.1830    1421.00110       0.2618       0.1829
   1420.98584       0.1995       0.2027    1420.98584       0.1995       0.2027
   1420.97058       0.3559       0.2133    1420.97058       0.3559       0.2133
   1420.95532       0.2823       0.2216    1420.95532       0.2823       0.2216
   1420.94006       0.3459       0.2508    1420.94006       0.3459       0.2507
   1420.92480       0.2880       0.3671    1420.92480       0.2880       0.3671
   1420.90955       0.3439       0.3035    1420.90955       0.3439       0.3035
   1420.89429       0.3293       0.3746    1420.89429       0.3293       0.3745
   1420.87903       0.4131       0.4935    1420.87903       0.4131       0.4934
   1420.86377       0.4542       0.4106    1420.86377       0.4542       0.4106
   1420.84851       0.5857       0.4491    1420.84851       0.5857       0.4491
   1420.83325       0.6194       0.6820    1420.83325       0.6194       0.6819
   1420.81799       0.8394       0.8554    1420.81799       0.8394       0.8553
   1420.80273       1.1171       1.0452    1420.80273       1.1171       1.0451
   1420.78748       1.3830       1.3181    1420.78748       1.3830       1.3179
   1420.77222       1.3757       1.4485    1420.77222       1.3757       1.4483
   1420.75696       1.4785       1.4650    1420.75696       1.4785       1.4649
   1420.74170       1.4972       1.5337    1420.74170       1.4972       1.5336
   1420.72644       1.7246       1.4741    1420.72644       1.7246       1.4739
   1420.71118       1.8224       1.5529    1420.71118       1.8223       1.5527
   1420.69592       1.4006       1.3190    1420.69592       1.4006       1.3189
   1420.68066       0.4772       0.3769    1420.68066       0.4772       0.3768
   1420.66541       0.0990       0.1129    1420.66541       0.0990       0.1129
   1420.65015      -0.2608      -0.3916    1420.65015      -0.2608      -0.3915
   1420.63489      -0.6228      -0.4103    1420.63489      -0.6228      -0.4102
   1420.61963      -0.7494      -0.6920    1420.61963      -0.7494      -0.6919
   1420.60437      -0.3898      -0.3092    1420.60437      -0.3898      -0.3092
   1420.58911      -0.2655      -0.1807    1420.58911      -0.2655      -0.1806
   1420.57385      -0.8259      -0.6707    1420.57385      -0.8259      -0.6706
   1420.55859      -0.9011      -0.7090    1420.55859      -0.9011      -0.7090
   1420.54333      -1.2622      -1.0593    1420.54333      -1.2621      -1.0592
   1420.52808       1.2228       0.9549    1420.52808       1.2228       0.9548
   1420.51282       5.3789       4.8330    1420.51282       5.3789       4.8324
   1420.49756       4.5966       4.2150    1420.49756       4.5965       4.2145
   1420.48230       0.3434       0.3827    1420.48230       0.3434       0.3826
   1420.46704       0.4537       0.4874    1420.46704       0.4537       0.4873
   1420.45178       0.5287       0.4104    1420.45178       0.5287       0.4103
   1420.43652       0.4458       0.5202    1420.43652       0.4458       0.5201
   1420.42126       0.4058       0.4529    1420.42126       0.4058       0.4529
   1420.40601       0.3690       0.4422    1420.40601       0.3690       0.4421
   1420.39075       0.3851       0.3467    1420.39075       0.3851       0.3467
   1420.37549       0.3927       0.3262    1420.37549       0.3927       0.3262
   1420.36023       0.3440       0.2675    1420.36023       0.3440       0.2674
   1420.34497       0.4240       0.2968    1420.34497       0.4240       0.2968
   1420.32971       0.3908       0.3227    1420.32971       0.3908       0.3227
   1420.31445       0.4897       0.3746    1420.31445       0.4896       0.3745
   1420.29919       0.4614       0.3453    1420.29919       0.4614       0.3452
   1420.28394       0.4523       0.3875    1420.28394       0.4523       0.3874
   1420.26868       0.3965       0.4126    1420.26868       0.3965       0.4125
   1420.25342       0.4725       0.4451    1420.25342       0.4725       0.4450
   1420.23816       0.4884       0.4679    1420.23816       0.4884       0.4679
   1420.22290       0.4785       0.4580    1420.22290       0.4785       0.4580
   1420.20764       0.4999       0.5680    1420.20764       0.4999       0.5679
   1420.19238       0.4427       0.4359    1420.19238       0.4427       0.4359
   1420.17712       0.4390       0.4772    1420.17712       0.4390       0.4771
   1420.16187       0.4760       0.4414    1420.16187       0.4760       0.4414
   1420.14661       0.4442       0.4503    1420.14661       0.4442       0.4503
   1420.13135       0.4304       0.4741    1420.13135       0.4304       0.4741
   1420.11609       0.4414       0.4279    1420.11609       0.4414       0.4278
   1420.10083       0.4335       0.3523    1420.10083       0.4335       0.3523
   1420.08557       0.4208       0.4196    1420.08557       0.4208       0.4195
   1420.07031       0.4414       0.4489    1420.07031       0.4414       0.4489
   1420.05505       0.4466       0.6022    1420.05505       0.4466       0.6021
   1420.03979       0.4493       0.4845    1420.03979       0.4493       0.4844
   1420.02454       0.4841       0.4875    1420.02454       0.4841       0.4875
   1420.00928       0.5088       0.4712    1420.00928       0.5088       0.4712
   1419.99402       0.4430       0.5244    1419.99402       0.4430       0.5243
   1419.97876       0.3995       0.4719    1419.97876       0.3995       0.4719
   1419.96350       0.4709       0.4835    1419.96350       0.4709       0.4834
   1419.94824       0.4415       0.3947    1419.94824       0.4415       0.3947
   1419.93298       0.3355       0.4717    1419.93298       0.3355       0.4716
   1419.91772       0.4311       0.5180    1419.91772       0.4311       0.5179
   1419.90247       0.4520       0.3513    1419.90247       0.4520       0.3513
   1419.88721       0.4302       0.4447    1419.88721       0.4302       0.4446
   1419.87195       0.4383       0.3719    1419.87195       0.4383       0.3719
   1419.85669       0.4121       0.4393    1419.85669       0.4121       0.4393
   1419.84143       0.4137       0.4610    1419.84143       0.4137       0.4610
   1419.82617       0.3355       0.4693    1419.82617       0.3355       0.4693
   1419.81091       0.5081       0.4446    1419.81091       0.5081       0.4445
   1419.79565       0.4223       0.3920    1419.79565       0.4223       0.3920
   1419.78040       0.3901       0.4186    1419.78040       0.3901       0.4185
   1419.76514       0.3940       0.4350    1419.76514       0.3940       0.4350
   1419.74988       0.4233       0.4703    1419.74988       0.4233       0.4703
   1419.73462       0.3714       0.4505    1419.73462       0.3714       0.4504
   1419.71936       0.4227       0.4439    1419.71936       0.4227       0.4439
   1419.70410       0.4235       0.4563    1419.70410       0.4235       0.4563
   1419.68884       0.3553       0.4299    1419.68884       0.3553       0.4299
   1419.67358       0.4091       0.5571    1419.67358       0.4091       0.5570
   1419.65833       0.3571       0.4896    1419.65833       0.3571       0.4896
   1419.64307       0.3873       0.4562    1419.64307       0.3873       0.4562
   1419.62781       0.4325       0.3982    1419.62781       0.4325       0.3982
   1419.61255       0.3589       0.4304    1419.61255       0.3589       0.4304
   1419.59729       0.3663       0.4350    1419.59729       0.3663       0.4350
   1419.58203       0.3899       0.4009    1419.58203       0.3899       0.4009
   1419.56677       0.4019       0.4560    1419.56677       0.4019       0.4560
   1419.55151       0.3568       0.4744    1419.55151       0.3568       0.4743
   1419.53625       0.4670       0.4968    1419.53625       0.4670       0.4967
   1419.52100       0.3946       0.5070    1419.52100       0.3946       0.5070
   1419.50574       0.4280       0.5511    1419.50574       0.4280       0.5510
   1419.49048       0.3758       0.3972    1419.49048       0.3758       0.3971
   1419.47522       0.2724       0.4767    1419.47522       0.2724       0.4766
   1419.45996       0.3660       0.4499    1419.45996       0.3660       0.4498
   1419.44470       0.3736       0.4123    1419.44470       0.3736       0.4122
   1419.42944       0.4497       0.3671    1419.42944       0.4497       0.3671
   1419.41418       0.3199       0.4536    1419.41418       0.3199       0.4536
   1419.39893       0.4063       0.4539    1419.39893       0.4063       0.4539
   1419.38367       0.3525       0.5620    1419.38367       0.3525       0.5619
   1419.36841       0.3869       0.4921    1419.36841       0.3869       0.4920
   1419.35315       0.4205       0.4335    1419.35315       0.4205       0.4335
   1419.33789       0.2917       0.4309    1419.33789       0.2917       0.4308
   1419.32263       0.3802       0.3989    1419.32263       0.3802       0.3989
   1419.30737       0.3493       0.5064    1419.30737       0.3493       0.5063
   1419.29211       0.2836       0.4173    1419.29211       0.2836       0.4172
   1419.27686       0.3832       0.3806    1419.27686       0.3832       0.3806
   1419.26160       0.3335       0.4315    1419.26160       0.3335       0.4315
   1419.24634       0.3697       0.3764    1419.24634       0.3697       0.3763
   1419.23108       0.3291       0.4892    1419.23108       0.3291       0.4891
   1419.21582       0.3154       0.3811    1419.21582       0.3154       0.3810
   1419.20056       0.2763       0.4668    1419.20056       0.2763       0.4667
   1419.18530       0.2678       0.3580    1419.18530       0.2678       0.3580
   1419.17004       0.2989       0.4614    1419.17004       0.2989       0.4614
   1419.15479       0.3574       0.3949    1419.15479       0.3574       0.3949
   1419.13953       0.3355       0.5514    1419.13953       0.3355       0.5514
   1419.12427       0.2602       0.5749    1419.12427       0.2602       0.5749
   1419.10901       0.3085       0.3775    1419.10901       0.3085       0.3774
   1419.09375       0.4065       0.5404    1419.09375       0.4065       0.5404
   1419.07849       0.2780       0.3466    1419.07849       0.2780       0.3465
   1419.06323       0.2570       0.4202    1419.06323       0.2570       0.4202
   1419.04797       0.2536       0.4911    1419.04797       0.2536       0.4910
   1419.03271       0.2884       0.4214    1419.03271       0.2884       0.4214
   1419.01746       0.3291       0.5497    1419.01746       0.3291       0.5496
   1419.00220       0.3173       0.4798    1419.00220       0.3173       0.4798
   1418.98694       0.3120       0.3709    1418.98694       0.3120       0.3708
   1418.97168       0.2986       0.4256    1418.97168       0.2986       0.4256
   1418.95642       0.2949       0.4182    1418.95642       0.2949       0.4182
   1418.94116       0.2340       0.5147    1418.94116       0.2340       0.5146
   1418.92590       0.2145       0.5378    1418.92590       0.2145       0.5378
   1418.91064       0.2205       0.5368    1418.91064       0.2205       0.5368
   1418.89539       0.2264       0.4261    1418.89539       0.2264       0.4260
   1418.88013       0.2422       0.5006    1418.88013       0.2422       0.5006
   1418.86487       0.1851       0.5147    1418.86487       0.1851       0.5146
   1418.84961       0.1994       0.5637    1418.84961       0.1994       0.5636
   1418.83435       0.2427       0.4608    1418.83435       0.2427       0.4607
   1418.81909       0.2665       0.4502    1418.81909       0.2665       0.4502
   1418.80383       0.2455       0.4509    1418.80383       0.2455       0.4509
   1418.78857       0.1503       0.4295    1418.78857       0.1503       0.4294
   1418.77332       0.2261       0.4720    1418.77332       0.2261       0.4720
   1418.75806       0.2965       0.4429    1418.75806       0.2965       0.4429
   1418.74280       0.1979       0.4356    1418.74280       0.1979       0.4355
   1418.72754       0.1317       0.3878    1418.72754       0.1317       0.3877
   1418.71228       0.1969       0.4248    1418.71228       0.1969       0.4248
   1418.69702       0.1632       0.4445    1418.69702       0.1632       0.4445
   1418.68176       0.1272       0.5221    1418.68176       0.1272       0.5220
   1418.66650       0.1924       0.4465    1418.66650       0.1924       0.4465
   1418.65125       0.1209       0.4544    1418.65125       0.1209       0.4543
   1418.63599       0.1458       0.5076    1418.63599       0.1458       0.5075
   1418.62073       0.1335       0.4901    1418.62073       0.1335       0.4900
   1418.60547       0.0516       0.4522    1418.60547       0.0516       0.4521
   1418.59021       0.1182       0.4817    1418.59021       0.1182       0.4816
   1418.57495       0.1688       0.4760    1418.57495       0.1688       0.4760
   1418.55969       0.0999       0.3523    1418.55969       0.0999       0.3523
   1418.54443       0.0917       0.4641    1418.54443       0.0917       0.4641
   1418.52917       0.1741       0.4813    1418.52917       0.1741       0.4812
   1418.51392       0.1972       0.5206    1418.51392       0.1972       0.5205
   1418.49866       0.1948       0.4330    1418.49866       0.1948       0.4330
   1418.48340       0.0750       0.4702    1418.48340       0.0750       0.4701
   1418.46814       0.1175       0.3587    1418.46814       0.1175       0.3586
   1418.45288       0.1448       0.4284    1418.45288       0.1448       0.4284
   1418.43762       0.0758       0.4803    1418.43762       0.0758       0.4803
   1418.42236       0.1851       0.4985    1418.42236       0.1851       0.4984
   1418.40710       0.1453       0.4911    1418.40710       0.1453       0.4911
   1418.39185       0.1218       0.4501    1418.39185       0.1218       0.4501
   1418.37659       0.0474       0.3956    1418.37659       0.0474       0.3956
   1418.36133       0.1308       0.4391    1418.36133       0.1308       0.4390
   1418.34607       0.1363       0.4695    1418.34607       0.1363       0.4695
   1418.33081       0.1541       0.4468    1418.33081       0.1541       0.4468
   1418.31555       0.0961       0.3929    1418.31555       0.0961       0.3928
   1418.30029       0.1182       0.4119    1418.30029       0.1182       0.4119
   1418.28503       0.0701       0.3818    1418.28503       0.0701       0.3817
   1418.26978       0.0756       0.4363    1418.26978       0.0756       0.4363
   1418.25452       0.1237       0.4306    1418.25452       0.1237       0.4305
   1418.23926       0.1319       0.4293    1418.23926       0.1319       0.4292
   1418.22400       0.0733       0.3796    1418.22400       0.0733       0.3795
   1418.20874       0.0604       0.3703    1418.20874       0.0604       0.3703
   1418.19348       0.0636       0.4338    1418.19348       0.0636       0.4337
   1418.17822       0.0868       0.4150    1418.17822       0.0868       0.4149
   1418.16296       0.1086       0.3968    1418.16296       0.1086       0.3968
   1418.14771       0.0342       0.4500    1418.14771       0.0342       0.4499
   1418.13245       0.0490       0.4220    1418.13245       0.0490       0.4219
   1418.11719       0.0131       0.4286    1418.11719       0.0131       0.4286
   1418.10193       0.0751       0.4540    1418.10193       0.0751       0.4539
   1418.08667       0.0926       0.5004    1418.08667       0.0926       0.5004
   1418.07141       0.0585       0.3849    1418.07141       0.0585       0.3849
   1418.05615       0.0915       0.4380    1418.05615       0.0915       0.4380
   1418.04089       0.0119       0.4370    1418.04089       0.0119       0.4370
   1418.02563       0.0662       0.4040    1418.02563       0.0662       0.4040
   1418.01038      -0.0167       0.3440    1418.01038      -0.0167       0.3439
   1417.99512       0.0331       0.4554    1417.99512       0.0331       0.4553
   1417.97986       0.0687       0.3444    1417.97986       0.0687       0.3443
   1417.96460       0.0624       0.3798    1417.96460       0.0624       0.3797
   1417.94934       0.1012       0.3945    1417.94934       0.1012       0.3945
   1417.93408       0.0363       0.4601    1417.93408       0.0363       0.4601
   1417.91882       0.0953       0.3925    1417.91882       0.0953       0.3925
   1417.90356      -0.0075       0.3839    1417.90356      -0.0075       0.3839
   1417.88831       0.1118       0.4174    1417.88831       0.1118       0.4173
   1417.87305       0.0597       0.4077    1417.87305       0.0597       0.4076
   1417.85779      -0.0039       0.4032    1417.85779      -0.0039       0.4032
   1417.84253       0.0152       0.4171    1417.84253       0.0152       0.4171
   1417.82727       0.0557       0.4154    1417.82727       0.0557       0.4154
   1417.81201       0.0606       0.4222    1417.81201       0.0606       0.4222
   1417.79675       0.0428       0.4248    1417.79675       0.0428       0.4248
   1417.78149       0.0757       0.4089    1417.78149       0.0757       0.4089
   1417.76624       0.0087       0.4741    1417.76624       0.0087       0.4740
   1417.75098      -0.0268       0.3875    1417.75098      -0.0268       0.3874
   1417.73572       0.0593       0.4024    1417.73572       0.0593       0.4024
   1417.72046       0.0837       0.4120    1417.72046       0.0837       0.4120
   1417.70520       0.0907       0.3456    1417.70520       0.0907       0.3456
   1417.68994       0.0184       0.4170    1417.68994       0.0184       0.4170
   1417.67468       0.0809       0.3566    1417.67468       0.0809       0.3566
   1417.65942       0.0105       0.3592    1417.65942       0.0105       0.3592
   1417.64417       0.0509       0.3370    1417.64417       0.0509       0.3370
   1417.62891       0.0186       0.4268    1417.62891       0.0186       0.4267
   1417.61365      -0.0140       0.4411    1417.61365      -0.0140       0.4410
   1417.59839       0.0184       0.4460    1417.59839       0.0184       0.4460
   1417.58313       0.0141       0.4151    1417.58313       0.0141       0.4151
   1417.56787       0.0086       0.4584    1417.56787       0.0086       0.4584
   1417.55261      -0.0014       0.3935    1417.55261      -0.0014       0.3935
   1417.53735       0.1485       0.3632    1417.53735       0.1485       0.3631
   1417.52209       0.0729       0.3891    1417.52209       0.0729       0.3890
   1417.50684       0.1101       0.3601    1417.50684       0.1101       0.3601
   1417.49158       0.0965       0.4095    1417.49158       0.0965       0.4094
   1417.47632       0.0828       0.4226    1417.47632       0.0828       0.4226
   1417.46106       0.0995       0.4081    1417.46106       0.0995       0.4080
   1417.44580       0.1207       0.4022    1417.44580       0.1207       0.4021
   1417.43054       0.0399       0.4298    1417.43054       0.0399       0.4297
   1417.41528       0.1181       0.4573    1417.41528       0.1181       0.4572
   1417.40002       0.0323       0.3779    1417.40002       0.0323       0.3778
   1417.38477       0.0813       0.4287    1417.38477       0.0813       0.4287
   1417.36951       0.1527       0.4865    1417.36951       0.1527       0.4865
   1417.35425       0.0729       0.3415    1417.35425       0.0729       0.3415
   1417.33899       0.1102       0.4320    1417.33899       0.1102       0.4319
   1417.32373       0.0750       0.4415    1417.32373       0.0750       0.4414
   1417.30847       0.1160       0.4427    1417.30847       0.1160       0.4426
   1417.29321       0.1132       0.3567    1417.29321       0.1132       0.3567
   1417.27795       0.1566       0.4045    1417.27795       0.1566       0.4045
   1417.26270       0.0973       0.2860    1417.26270       0.0973       0.2859
   1417.24744       0.1760       0.3541    1417.24744       0.1760       0.3540
   1417.23218       0.0434       0.3294    1417.23218       0.0434       0.3293
   1417.21692       0.0458       0.4286    1417.21692       0.0458       0.4285
   1417.20166       0.0697       0.3740    1417.20166       0.0697       0.3739
   1417.18640       0.1723       0.4115    1417.18640       0.1723       0.4115
   1417.17114       0.1673       0.3284    1417.17114       0.1673       0.3284
   1417.15588       0.1314       0.3176    1417.15588       0.1314       0.3176
   1417.14062       0.0991       0.3457    1417.14062       0.0991       0.3457
   1417.12537       0.1184       0.3393    1417.12537       0.1184       0.3393
   1417.11011       0.2727       0.4656    1417.11011       0.2727       0.4655
   1417.09485       0.1233       0.3428    1417.09485       0.1233       0.3428
   1417.07959       0.1692       0.4579    1417.07959       0.1692       0.4578
   1417.06433       0.0559       0.4650    1417.06433       0.0559       0.4650
   1417.04907       0.1414       0.3855    1417.04907       0.1414       0.3855
   1417.03381       0.2100       0.2601    1417.03381       0.2100       0.2600
   1417.01855       0.1264       0.3612    1417.01855       0.1264       0.3612
   1417.00330       0.2348       0.3810    1417.00330       0.2348       0.3810
   1416.98804       0.1202       0.4362    1416.98804       0.1202       0.4362
   1416.97278       0.1961       0.4352    1416.97278       0.1961       0.4351
   1416.95752       0.2430       0.4054    1416.95752       0.2430       0.4054
   1416.94226       0.2281       0.4209    1416.94226       0.2281       0.4209
   1416.92700       0.2386       0.4283    1416.92700       0.2386       0.4282
   1416.91174       0.1979       0.4480    1416.91174       0.1979       0.4480
   1416.89648       0.1852       0.2772    1416.89648       0.1852       0.2772
   1416.88123       0.1433       0.3738    1416.88123       0.1433       0.3737
   1416.86597       0.2101       0.4098    1416.86597       0.2101       0.4097
   1416.85071       0.2135       0.3276    1416.85071       0.2135       0.3276
   1416.83545       0.0993       0.3557    1416.83545       0.0993       0.3556
   1416.82019       0.2291       0.4704    1416.82019       0.2291       0.4704
   1416.80493       0.1785       0.3651    1416.80493       0.1785       0.3651
   1416.78967       0.2177       0.4303    1416.78967       0.2177       0.4302
   1416.77441       0.2224       0.3491    1416.77441       0.2224       0.3490
   1416.75916       0.2844       0.4458    1416.75916       0.2844       0.4458
   1416.74390       0.2064       0.3543    1416.74390       0.2064       0.3542
   1416.72864       0.3180       0.3532    1416.72864       0.3180       0.3532
   1416.71338       0.2915       0.3912    1416.71338       0.2915       0.3911
   1416.69812       0.3616       0.3498    1416.69812       0.3616       0.3498
   1416.68286       0.2498       0.3839    1416.68286       0.2498       0.3839
   1416.66760       0.3408       0.2600    1416.66760       0.3408       0.2599
   1416.65234       0.3183       0.2735    1416.65234       0.3183       0.2734
   1416.63708       0.2271       0.2932    1416.63708       0.2271       0.2932
   1416.62183       0.3348       0.3549    1416.62183       0.3348       0.3549
   1416.60657       0.2562       0.3693    1416.60657       0.2562       0.3692
   1416.59131       0.2994       0.3161    1416.59131       0.2994       0.3161
   1416.57605       0.3033       0.3335    1416.57605       0.3033       0.3334
   1416.56079       0.3925       0.4127    1416.56079       0.3925       0.4126
   1416.54553       0.3000       0.2677    1416.54553       0.3000       0.2677
   1416.53027       0.4050       0.3656    1416.53027       0.4050       0.3655
   1416.51501       0.3588       0.4263    1416.51501       0.3588       0.4262
   1416.49976       0.2572       0.3320    1416.49976       0.2572       0.3320
   1416.48450       0.3103       0.3825    1416.48450       0.3103       0.3825
   1416.46924       0.2843       0.4089    1416.46924       0.2843       0.4089
   1416.45398       0.4218       0.4133    1416.45398       0.4218       0.4133
   1416.43872       0.3526       0.3182    1416.43872       0.3526       0.3182
   1416.42346       0.2920       0.2829    1416.42346       0.2920       0.2828
   1416.40820       0.2779       0.4147    1416.40820       0.2779       0.4146
   1416.39294       0.3640       0.3633    1416.39294       0.3640       0.3633
   1416.37769       0.3712       0.4088    1416.37769       0.3712       0.4087
   1416.36243       0.3562       0.3195    1416.36243       0.3562       0.3195
   1416.34717       0.3121       0.4170    1416.34717       0.3121       0.4169
   1416.33191       0.3897       0.4099    1416.33191       0.3897       0.4099
   1416.31665       0.4471       0.3809    1416.31665       0.4471       0.3809
   1416.30139       0.3748       0.3047    1416.30139       0.3748       0.3046
   1416.28613       0.3425       0.4107    1416.28613       0.3424       0.4107
   1416.27087       0.4389       0.2462    1416.27087       0.4389       0.2461
   1416.25562       0.2977       0.4240    1416.25562       0.2977       0.4239
   1416.24036       0.3500       0.2983    1416.24036       0.3500       0.2982
   1416.22510       0.4180       0.2786    1416.22510       0.4180       0.2786
   1416.20984       0.4419       0.3819    1416.20984       0.4419       0.3819
   1416.19458       0.4595       0.3771    1416.19458       0.4595       0.3771
   1416.17932       0.4352       0.2964    1416.17932       0.4352       0.2964
   1416.16406       0.4326       0.3735    1416.16406       0.4326       0.3734
   1416.14880       0.5526       0.4261    1416.14880       0.5526       0.4261
   1416.13354       0.4337       0.3808    1416.13354       0.4337       0.3807
   1416.11829       0.4090       0.3279    1416.11829       0.4090       0.3279
   1416.10303       0.3446       0.3422    1416.10303       0.3446       0.3422
   1416.08777       0.3991       0.3695    1416.08777       0.3991       0.3695
   1416.07251       0.4243       0.3317    1416.07251       0.4243       0.3317
   1416.05725       0.4765       0.3497    1416.05725       0.4765       0.3497
   1416.04199       0.5645       0.3395    1416.04199       0.5644       0.3394
   1416.02673       0.4084       0.4994    1416.02673       0.4084       0.4994
   1416.01147       0.5305       0.4616    1416.01147       0.5305       0.4616
   1415.99622       0.4821       0.3395    1415.99622       0.4821       0.3394
