#     FILENAME=Skynet_59284_M31_25kpc_AAhmed_52428_1404.A.onoff.cal.txt
#     BASENAME=Skynet_59284_M31_25kpc_AAhmed_52428_1404
#      CONTROL=SKYNET
#     PROJCODE=Skynet_59284_M31_25kpc_AAhmed_52428
#     DATAROOT=/raid/scratch/cyborg/SkynetData
#      DATADIR=/raid/scratch/cyborg
#     DATADIR2=/raid/scratch/cyborg/SkynetData/Skynet_59284_M31_25kpc_AAhmed_5
#     SCANNAME=2019_06_26_10
#     SRC_NAME=M31_25kpc_AAhmed
#     OBSERVER=unioncollege_21317
#     DATE_OBS=2021-03-11T12:29:41.260
#        OBSID=52428
#      SCANNUM=1404
#          MJD=59284.5206164
#          UTC=44981
#     SCANTYPE=onoff
#     DATAMODE=HIRES
#     RECEIVER=Rx1_2
#      OBSFREQ=1395.0000
# Actual_FREQ1=1420.4000,
# Actual_FREQ2=1420.4000
#    LO1Tuning=6870.4000
#     RFFILTER=1355_1435
#        OBSBW=-15.6250
#     EFFBANDW=15.6250
#        NCHAN=1024
#    STARTCHAN=51
#     STOPCHAN=972
#         TINT=0.3000
#         TBIN=0.00419430
#       ACCLEN=2048 
#     DURATION=246.30
#     EXPOSURE=189.57
#        FOCUS=37.093
#       RA,DEC=00:37:03.12, 39:49:30.41
#      RA(deg)=7.89428
#     DEC(deg)=39.82451
#   WIDTH(deg)=2.0947x0.0294
#    AZIM(deg)=55.9383
#    ELEV(deg)=22.9663
#     COORDREF=RA_DEC_
#         HREF=9.1933
#         VREF=39.8247
#      RADESYS=FK5
#       OFFSYS=RADEC
#      EQUINOX=2000.00
#     IFATTENS=21.00, 14.00
#   BALANCELEV=1.200 
#   POWER_XLYR=[1.16, 2.14] 
#       VELDEF=RADI-OBS 
#     VELOCITY=0.000 
#         NPOL=2 
#      POLMODE=Linear 
#      POLTYPE=XXYY 
#      WARNING=None 
#     NOISECAL=HI 
#       PRECAL=2 
#      POSTCAL=2 
#     CRYOTEMP=15 
#      BOXTEMP=26 
#         TSYS=XX1:34.39, YY1:42.00
#         TSYS=XX2:34.39, YY2:41.97
#         TCAL=XX1:9.17, YY1:10.07
#         TCAL=XX2:9.17, YY2:10.07
# Calibrated spectra: Tsys*(ON-OFF)/OFF 
#                
#                
#Freq1(MHz)         XX1          YY1   Freq2(MHz)       XX2         YY2 
   1427.43430       0.5316       0.3455    1427.43430       0.5317       0.3452
   1427.41904       0.5405       0.4782    1427.41904       0.5406       0.4778
   1427.40378       0.5728       0.3534    1427.40378       0.5729       0.3532
   1427.38853       0.5372       0.3520    1427.38853       0.5373       0.3518
   1427.37327       0.4990       0.3257    1427.37327       0.4991       0.3254
   1427.35801       0.5507       0.4440    1427.35801       0.5508       0.4437
   1427.34275       0.5074       0.4141    1427.34275       0.5075       0.4138
   1427.32749       0.6070       0.3091    1427.32749       0.6071       0.3089
   1427.31223       0.5550       0.3177    1427.31223       0.5551       0.3175
   1427.29697       0.5963       0.3616    1427.29697       0.5964       0.3613
   1427.28171       0.5808       0.3824    1427.28171       0.5809       0.3822
   1427.26646       0.5421       0.3364    1427.26646       0.5422       0.3362
   1427.25120       0.4792       0.2878    1427.25120       0.4793       0.2876
   1427.23594       0.5348       0.3073    1427.23594       0.5349       0.3071
   1427.22068       0.4381       0.3760    1427.22068       0.4382       0.3758
   1427.20542       0.5364       0.3737    1427.20542       0.5365       0.3734
   1427.19016       0.4714       0.3461    1427.19016       0.4715       0.3459
   1427.17490       0.5653       0.3316    1427.17490       0.5654       0.3314
   1427.15964       0.5717       0.3781    1427.15964       0.5718       0.3779
   1427.14438       0.5704       0.3758    1427.14438       0.5705       0.3755
   1427.12913       0.5231       0.3239    1427.12913       0.5232       0.3237
   1427.11387       0.5565       0.4109    1427.11387       0.5565       0.4106
   1427.09861       0.5306       0.3369    1427.09861       0.5307       0.3367
   1427.08335       0.5659       0.3617    1427.08335       0.5660       0.3615
   1427.06809       0.5542       0.3486    1427.06809       0.5543       0.3484
   1427.05283       0.6244       0.3263    1427.05283       0.6245       0.3261
   1427.03757       0.5860       0.3494    1427.03757       0.5861       0.3492
   1427.02231       0.5973       0.4190    1427.02231       0.5974       0.4188
   1427.00706       0.5064       0.3657    1427.00706       0.5064       0.3654
   1426.99180       0.5811       0.2973    1426.99180       0.5812       0.2971
   1426.97654       0.5690       0.3978    1426.97654       0.5691       0.3975
   1426.96128       0.5064       0.3933    1426.96128       0.5065       0.3930
   1426.94602       0.5466       0.4167    1426.94602       0.5467       0.4164
   1426.93076       0.5016       0.4061    1426.93076       0.5017       0.4058
   1426.91550       0.5146       0.3937    1426.91550       0.5147       0.3935
   1426.90024       0.5466       0.3844    1426.90024       0.5467       0.3841
   1426.88499       0.5653       0.2409    1426.88499       0.5654       0.2407
   1426.86973       0.5646       0.4062    1426.86973       0.5647       0.4059
   1426.85447       0.5032       0.4503    1426.85447       0.5032       0.4500
   1426.83921       0.4904       0.2991    1426.83921       0.4905       0.2989
   1426.82395       0.4414       0.2632    1426.82395       0.4415       0.2630
   1426.80869       0.5519       0.2861    1426.80869       0.5520       0.2860
   1426.79343       0.5983       0.3522    1426.79343       0.5984       0.3520
   1426.77817       0.6130       0.3136    1426.77817       0.6131       0.3134
   1426.76292       0.5049       0.4329    1426.76292       0.5050       0.4326
   1426.74766       0.5003       0.3365    1426.74766       0.5004       0.3363
   1426.73240       0.5779       0.3581    1426.73240       0.5780       0.3579
   1426.71714       0.6110       0.3956    1426.71714       0.6111       0.3953
   1426.70188       0.4761       0.4306    1426.70188       0.4762       0.4303
   1426.68662       0.6328       0.4212    1426.68662       0.6329       0.4209
   1426.67136       0.5818       0.4197    1426.67136       0.5819       0.4194
   1426.65610       0.6078       0.4000    1426.65610       0.6079       0.3997
   1426.64084       0.6310       0.4856    1426.64084       0.6311       0.4853
   1426.62559       0.5101       0.2554    1426.62559       0.5102       0.2553
   1426.61033       0.5803       0.3366    1426.61033       0.5804       0.3363
   1426.59507       0.6835       0.3423    1426.59507       0.6836       0.3421
   1426.57981       0.5751       0.4356    1426.57981       0.5752       0.4353
   1426.56455       0.6144       0.4148    1426.56455       0.6145       0.4145
   1426.54929       0.5378       0.3420    1426.54929       0.5379       0.3418
   1426.53403       0.5468       0.4036    1426.53403       0.5469       0.4033
   1426.51877       0.5287       0.4200    1426.51877       0.5288       0.4197
   1426.50352       0.5890       0.4570    1426.50352       0.5891       0.4567
   1426.48826       0.6269       0.4073    1426.48826       0.6270       0.4071
   1426.47300       0.5615       0.2502    1426.47300       0.5616       0.2500
   1426.45774       0.5795       0.4075    1426.45774       0.5796       0.4072
   1426.44248       0.5937       0.4005    1426.44248       0.5938       0.4003
   1426.42722       0.5739       0.3872    1426.42722       0.5740       0.3869
   1426.41196       0.5169       0.4741    1426.41196       0.5170       0.4738
   1426.39670       0.5006       0.3895    1426.39670       0.5006       0.3893
   1426.38145       0.5362       0.3291    1426.38145       0.5363       0.3289
   1426.36619       0.6035       0.3861    1426.36619       0.6036       0.3859
   1426.35093       0.5708       0.3974    1426.35093       0.5709       0.3971
   1426.33567       0.5572       0.3746    1426.33567       0.5573       0.3743
   1426.32041       0.5534       0.3623    1426.32041       0.5535       0.3620
   1426.30515       0.5317       0.3444    1426.30515       0.5318       0.3442
   1426.28989       0.5977       0.3407    1426.28989       0.5978       0.3405
   1426.27463       0.6200       0.2626    1426.27463       0.6201       0.2624
   1426.25937       0.5964       0.4093    1426.25937       0.5965       0.4090
   1426.24412       0.6217       0.3348    1426.24412       0.6218       0.3346
   1426.22886       0.6689       0.4331    1426.22886       0.6690       0.4329
   1426.21360       0.6329       0.4231    1426.21360       0.6330       0.4228
   1426.19834       0.5454       0.4568    1426.19834       0.5455       0.4565
   1426.18308       0.5858       0.3815    1426.18308       0.5859       0.3812
   1426.16782       0.5733       0.4066    1426.16782       0.5734       0.4063
   1426.15256       0.6233       0.4468    1426.15256       0.6234       0.4465
   1426.13730       0.5755       0.3624    1426.13730       0.5756       0.3621
   1426.12205       0.5881       0.4458    1426.12205       0.5882       0.4455
   1426.10679       0.5761       0.4502    1426.10679       0.5762       0.4499
   1426.09153       0.6141       0.4387    1426.09153       0.6142       0.4384
   1426.07627       0.5322       0.4250    1426.07627       0.5323       0.4248
   1426.06101       0.5745       0.4888    1426.06101       0.5746       0.4885
   1426.04575       0.5734       0.4129    1426.04575       0.5734       0.4127
   1426.03049       0.6548       0.4145    1426.03049       0.6549       0.4142
   1426.01523       0.6982       0.3692    1426.01523       0.6983       0.3689
   1425.99998       0.5716       0.3364    1425.99998       0.5717       0.3362
   1425.98472       0.6068       0.3946    1425.98472       0.6069       0.3943
   1425.96946       0.5822       0.5024    1425.96946       0.5823       0.5021
   1425.95420       0.5777       0.4580    1425.95420       0.5777       0.4577
   1425.93894       0.5225       0.4571    1425.93894       0.5226       0.4568
   1425.92368       0.5562       0.5074    1425.92368       0.5563       0.5070
   1425.90842       0.5126       0.4706    1425.90842       0.5126       0.4703
   1425.89316       0.6220       0.4493    1425.89316       0.6221       0.4490
   1425.87791       0.6165       0.4862    1425.87791       0.6166       0.4858
   1425.86265       0.6168       0.4814    1425.86265       0.6169       0.4810
   1425.84739       0.5504       0.5329    1425.84739       0.5505       0.5326
   1425.83213       0.6367       0.4107    1425.83213       0.6368       0.4104
   1425.81687       0.5960       0.5665    1425.81687       0.5961       0.5661
   1425.80161       0.5837       0.3757    1425.80161       0.5838       0.3754
   1425.78635       0.6279       0.4726    1425.78635       0.6280       0.4723
   1425.77109       0.5176       0.5466    1425.77109       0.5177       0.5463
   1425.75583       0.5782       0.4523    1425.75583       0.5783       0.4520
   1425.74058       0.5743       0.4417    1425.74058       0.5744       0.4414
   1425.72532       0.6211       0.4314    1425.72532       0.6212       0.4311
   1425.71006       0.5539       0.5367    1425.71006       0.5540       0.5363
   1425.69480       0.6010       0.5685    1425.69480       0.6011       0.5681
   1425.67954       0.6196       0.4226    1425.67954       0.6197       0.4224
   1425.66428       0.6525       0.4511    1425.66428       0.6527       0.4508
   1425.64902       0.5495       0.5382    1425.64902       0.5495       0.5378
   1425.63376       0.5599       0.4773    1425.63376       0.5600       0.4770
   1425.61851       0.6141       0.5297    1425.61851       0.6142       0.5294
   1425.60325       0.6138       0.4512    1425.60325       0.6139       0.4509
   1425.58799       0.5612       0.4520    1425.58799       0.5613       0.4517
   1425.57273       0.6447       0.5496    1425.57273       0.6448       0.5492
   1425.55747       0.6279       0.5844    1425.55747       0.6280       0.5840
   1425.54221       0.5443       0.5293    1425.54221       0.5443       0.5289
   1425.52695       0.5404       0.5095    1425.52695       0.5405       0.5092
   1425.51169       0.6400       0.5530    1425.51169       0.6402       0.5527
   1425.49644       0.5997       0.4841    1425.49644       0.5998       0.4838
   1425.48118       0.6183       0.6228    1425.48118       0.6184       0.6224
   1425.46592       0.6329       0.4764    1425.46592       0.6330       0.4761
   1425.45066       0.5044       0.6010    1425.45066       0.5045       0.6006
   1425.43540       0.6661       0.4840    1425.43540       0.6662       0.4837
   1425.42014       0.6391       0.5217    1425.42014       0.6392       0.5213
   1425.40488       0.6014       0.4445    1425.40488       0.6015       0.4442
   1425.38962       0.5880       0.5677    1425.38962       0.5881       0.5674
   1425.37437       0.5586       0.5239    1425.37437       0.5587       0.5235
   1425.35911       0.5568       0.5083    1425.35911       0.5569       0.5079
   1425.34385       0.6554       0.5458    1425.34385       0.6555       0.5455
   1425.32859       0.6216       0.4791    1425.32859       0.6217       0.4788
   1425.31333       0.5917       0.5539    1425.31333       0.5918       0.5535
   1425.29807       0.6266       0.5659    1425.29807       0.6267       0.5655
   1425.28281       0.5972       0.6196    1425.28281       0.5973       0.6192
   1425.26755       0.5973       0.4688    1425.26755       0.5974       0.4684
   1425.25229       0.6609       0.6167    1425.25229       0.6610       0.6163
   1425.23704       0.6455       0.5855    1425.23704       0.6456       0.5851
   1425.22178       0.5308       0.6356    1425.22178       0.5308       0.6352
   1425.20652       0.6190       0.5216    1425.20652       0.6191       0.5212
   1425.19126       0.5826       0.5657    1425.19126       0.5826       0.5653
   1425.17600       0.6138       0.5346    1425.17600       0.6139       0.5342
   1425.16074       0.5993       0.5868    1425.16074       0.5994       0.5864
   1425.14548       0.6053       0.5842    1425.14548       0.6054       0.5838
   1425.13022       0.6236       0.4859    1425.13022       0.6237       0.4856
   1425.11497       0.5983       0.5643    1425.11497       0.5984       0.5639
   1425.09971       0.6067       0.5206    1425.09971       0.6068       0.5203
   1425.08445       0.5989       0.5218    1425.08445       0.5990       0.5214
   1425.06919       0.6210       0.5236    1425.06919       0.6211       0.5232
   1425.05393       0.6085       0.5259    1425.05393       0.6086       0.5255
   1425.03867       0.6446       0.5204    1425.03867       0.6447       0.5201
   1425.02341       0.6296       0.6107    1425.02341       0.6297       0.6103
   1425.00815       0.5980       0.5630    1425.00815       0.5981       0.5627
   1424.99290       0.6017       0.5913    1424.99290       0.6018       0.5909
   1424.97764       0.5822       0.5108    1424.97764       0.5823       0.5104
   1424.96238       0.5590       0.5462    1424.96238       0.5591       0.5458
   1424.94712       0.5975       0.4893    1424.94712       0.5976       0.4890
   1424.93186       0.5884       0.5321    1424.93186       0.5884       0.5317
   1424.91660       0.5693       0.6454    1424.91660       0.5693       0.6449
   1424.90134       0.5958       0.6434    1424.90134       0.5959       0.6429
   1424.88608       0.6187       0.6302    1424.88608       0.6188       0.6298
   1424.87083       0.5321       0.7157    1424.87083       0.5322       0.7152
   1424.85557       0.5998       0.6872    1424.85557       0.5999       0.6868
   1424.84031       0.5943       0.7071    1424.84031       0.5944       0.7066
   1424.82505       0.5665       0.6317    1424.82505       0.5666       0.6313
   1424.80979       0.6080       0.5646    1424.80979       0.6081       0.5643
   1424.79453       0.5768       0.7081    1424.79453       0.5769       0.7076
   1424.77927       0.6076       0.6115    1424.77927       0.6077       0.6111
   1424.76401       0.5942       0.6612    1424.76401       0.5943       0.6607
   1424.74875       0.6219       0.5675    1424.74875       0.6220       0.5671
   1424.73350       0.6942       0.6586    1424.73350       0.6943       0.6581
   1424.71824       0.6159       0.6543    1424.71824       0.6160       0.6538
   1424.70298       0.5902       0.6071    1424.70298       0.5902       0.6067
   1424.68772       0.6338       0.6843    1424.68772       0.6339       0.6838
   1424.67246       0.5458       0.6197    1424.67246       0.5459       0.6193
   1424.65720       0.6194       0.7096    1424.65720       0.6195       0.7091
   1424.64194       0.6162       0.5800    1424.64194       0.6163       0.5796
   1424.62668       0.5968       0.6763    1424.62668       0.5969       0.6759
   1424.61143       0.5832       0.5387    1424.61143       0.5833       0.5383
   1424.59617       0.6230       0.5779    1424.59617       0.6231       0.5775
   1424.58091       0.6148       0.6132    1424.58091       0.6149       0.6128
   1424.56565       0.5769       0.6250    1424.56565       0.5770       0.6246
   1424.55039       0.6537       0.5741    1424.55039       0.6538       0.5737
   1424.53513       0.5715       0.6293    1424.53513       0.5716       0.6289
   1424.51987       0.6455       0.6843    1424.51987       0.6456       0.6839
   1424.50461       0.6769       0.6463    1424.50461       0.6770       0.6459
   1424.48936       0.6468       0.6602    1424.48936       0.6469       0.6597
   1424.47410       0.6045       0.6454    1424.47410       0.6046       0.6449
   1424.45884       0.6230       0.6691    1424.45884       0.6231       0.6686
   1424.44358       0.6220       0.6886    1424.44358       0.6221       0.6882
   1424.42832       0.6051       0.5928    1424.42832       0.6052       0.5924
   1424.41306       0.6490       0.7061    1424.41306       0.6491       0.7056
   1424.39780       0.6498       0.6921    1424.39780       0.6499       0.6917
   1424.38254       0.6351       0.6624    1424.38254       0.6352       0.6619
   1424.36729       0.5843       0.6838    1424.36729       0.5844       0.6833
   1424.35203       0.6460       0.6729    1424.35203       0.6461       0.6724
   1424.33677       0.6192       0.6545    1424.33677       0.6193       0.6541
   1424.32151       0.6028       0.6051    1424.32151       0.6029       0.6047
   1424.30625       0.6268       0.6521    1424.30625       0.6269       0.6517
   1424.29099       0.6192       0.6827    1424.29099       0.6193       0.6822
   1424.27573       0.6090       0.6432    1424.27573       0.6091       0.6428
   1424.26047       0.6878       0.6904    1424.26047       0.6879       0.6899
   1424.24521       0.6569       0.7180    1424.24521       0.6570       0.7175
   1424.22996       0.6608       0.7237    1424.22996       0.6609       0.7232
   1424.21470       0.6256       0.6910    1424.21470       0.6257       0.6906
   1424.19944       0.6686       0.5987    1424.19944       0.6687       0.5983
   1424.18418       0.6393       0.6457    1424.18418       0.6394       0.6452
   1424.16892       0.6060       0.6490    1424.16892       0.6061       0.6485
   1424.15366       0.6092       0.7053    1424.15366       0.6093       0.7048
   1424.13840       0.5615       0.6726    1424.13840       0.5616       0.6721
   1424.12314       0.5980       0.7111    1424.12314       0.5981       0.7106
   1424.10789       0.5850       0.6864    1424.10789       0.5851       0.6859
   1424.09263       0.5865       0.7250    1424.09263       0.5866       0.7245
   1424.07737       0.6592       0.6575    1424.07737       0.6593       0.6570
   1424.06211       0.7171       0.7968    1424.06211       0.7172       0.7962
   1424.04685       0.6113       0.6245    1424.04685       0.6114       0.6240
   1424.03159       0.5839       0.6400    1424.03159       0.5840       0.6395
   1424.01633       0.6544       0.6853    1424.01633       0.6545       0.6848
   1424.00107       0.5614       0.6652    1424.00107       0.5614       0.6647
   1423.98582       0.6346       0.7406    1423.98582       0.6347       0.7401
   1423.97056       0.5710       0.7059    1423.97056       0.5711       0.7054
   1423.95530       0.6355       0.7311    1423.95530       0.6356       0.7306
   1423.94004       0.5762       0.6928    1423.94004       0.5763       0.6923
   1423.92478       0.5610       0.7051    1423.92478       0.5610       0.7046
   1423.90952       0.6592       0.6893    1423.90952       0.6593       0.6888
   1423.89426       0.6208       0.7088    1423.89426       0.6209       0.7083
   1423.87900       0.5656       0.6703    1423.87900       0.5656       0.6699
   1423.86375       0.6270       0.7919    1423.86375       0.6271       0.7914
   1423.84849       0.6167       0.7082    1423.84849       0.6168       0.7077
   1423.83323       0.6561       0.7025    1423.83323       0.6562       0.7020
   1423.81797       0.6071       0.7581    1423.81797       0.6072       0.7576
   1423.80271       0.6669       0.7167    1423.80271       0.6670       0.7162
   1423.78745       0.6603       0.7554    1423.78745       0.6605       0.7549
   1423.77219       0.5806       0.7342    1423.77219       0.5807       0.7337
   1423.75693       0.5749       0.7408    1423.75693       0.5750       0.7403
   1423.74167       0.5628       0.7823    1423.74167       0.5629       0.7817
   1423.72642       0.6400       0.7546    1423.72642       0.6401       0.7541
   1423.71116       0.5982       0.7720    1423.71116       0.5982       0.7715
   1423.69590       0.5799       0.7714    1423.69590       0.5799       0.7709
   1423.68064       0.6127       0.7390    1423.68064       0.6128       0.7385
   1423.66538       0.6030       0.7220    1423.66538       0.6031       0.7215
   1423.65012       0.6595       0.8040    1423.65012       0.6596       0.8035
   1423.63486       0.6257       0.7303    1423.63486       0.6258       0.7298
   1423.61960       0.5741       0.6933    1423.61960       0.5742       0.6928
   1423.60435       0.6020       0.6694    1423.60435       0.6021       0.6689
   1423.58909       0.5879       0.7372    1423.58909       0.5880       0.7367
   1423.57383       0.5830       0.7877    1423.57383       0.5831       0.7871
   1423.55857       0.6512       0.6631    1423.55857       0.6513       0.6627
   1423.54331       0.5920       0.7928    1423.54331       0.5921       0.7923
   1423.52805       0.6616       0.6584    1423.52805       0.6617       0.6580
   1423.51279       0.6520       0.7042    1423.51279       0.6521       0.7037
   1423.49753       0.6494       0.7827    1423.49753       0.6495       0.7821
   1423.48228       0.6305       0.7830    1423.48228       0.6306       0.7824
   1423.46702       0.5580       0.7532    1423.46702       0.5581       0.7527
   1423.45176       0.6340       0.7935    1423.45176       0.6341       0.7930
   1423.43650       0.5539       0.7484    1423.43650       0.5540       0.7479
   1423.42124       0.6163       0.7885    1423.42124       0.6164       0.7880
   1423.40598       0.6056       0.6661    1423.40598       0.6057       0.6656
   1423.39072       0.6249       0.7449    1423.39072       0.6250       0.7444
   1423.37546       0.5819       0.7428    1423.37546       0.5820       0.7423
   1423.36021       0.5854       0.7481    1423.36021       0.5854       0.7476
   1423.34495       0.5609       0.8018    1423.34495       0.5610       0.8013
   1423.32969       0.6376       0.6913    1423.32969       0.6377       0.6909
   1423.31443       0.6428       0.6596    1423.31443       0.6429       0.6591
   1423.29917       0.6093       0.7717    1423.29917       0.6094       0.7712
   1423.28391       0.5672       0.7282    1423.28391       0.5673       0.7277
   1423.26865       0.5980       0.7927    1423.26865       0.5981       0.7921
   1423.25339       0.6547       0.7272    1423.25339       0.6548       0.7267
   1423.23813       0.6319       0.7557    1423.23813       0.6320       0.7552
   1423.22288       0.6215       0.7177    1423.22288       0.6216       0.7172
   1423.20762       0.6330       0.7925    1423.20762       0.6331       0.7920
   1423.19236       0.5662       0.7322    1423.19236       0.5662       0.7318
   1423.17710       0.6099       0.7480    1423.17710       0.6100       0.7475
   1423.16184       0.5401       0.6649    1423.16184       0.5402       0.6645
   1423.14658       0.4498       0.7734    1423.14658       0.4499       0.7729
   1423.13132       0.6022       0.7907    1423.13132       0.6023       0.7902
   1423.11606       0.5892       0.7483    1423.11606       0.5893       0.7478
   1423.10081       0.5695       0.7151    1423.10081       0.5696       0.7147
   1423.08555       0.6443       0.7963    1423.08555       0.6444       0.7958
   1423.07029       0.5752       0.7576    1423.07029       0.5753       0.7571
   1423.05503       0.6823       0.7757    1423.05503       0.6824       0.7752
   1423.03977       0.6233       0.8765    1423.03977       0.6234       0.8759
   1423.02451       0.6837       0.8766    1423.02451       0.6838       0.8760
   1423.00925       0.7494       0.9102    1423.00925       0.7496       0.9096
   1422.99399       0.8503       0.8899    1422.99399       0.8505       0.8893
   1422.97874       0.8407       1.0208    1422.97874       0.8408       1.0201
   1422.96348       0.9300       1.1873    1422.96348       0.9301       1.1865
   1422.94822       0.9320       1.1505    1422.94822       0.9322       1.1497
   1422.93296       1.0726       1.3514    1422.93296       1.0728       1.3505
   1422.91770       1.2062       1.5352    1422.91770       1.2063       1.5341
   1422.90244       1.3483       1.6472    1422.90244       1.3485       1.6461
   1422.88718       1.6032       1.9857    1422.88718       1.6035       1.9844
   1422.87192       1.9976       2.5293    1422.87192       1.9980       2.5276
   1422.85667       2.5444       3.2212    1422.85667       2.5448       3.2190
   1422.84141       3.1726       3.9946    1422.84141       3.1731       3.9920
   1422.82615       3.6284       4.5332    1422.82615       3.6290       4.5301
   1422.81089       4.0416       4.8853    1422.81089       4.0423       4.8820
   1422.79563       3.9957       4.9313    1422.79563       3.9963       4.9280
   1422.78037       3.7442       4.6827    1422.78037       3.7448       4.6796
   1422.76511       3.5157       4.3813    1422.76511       3.5162       4.3783
   1422.74985       3.0949       3.9358    1422.74985       3.0953       3.9331
   1422.73459       2.8106       3.5855    1422.73459       2.8110       3.5831
   1422.71934       2.4080       3.0500    1422.71934       2.4083       3.0480
   1422.70408       2.2293       2.8063    1422.70408       2.2296       2.8044
   1422.68882       2.0708       2.5443    1422.68882       2.0711       2.5426
   1422.67356       1.8625       2.3771    1422.67356       1.8628       2.3755
   1422.65830       1.7773       2.1856    1422.65830       1.7776       2.1842
   1422.64304       1.5895       1.9803    1422.64304       1.5898       1.9790
   1422.62778       1.4980       1.8078    1422.62778       1.4982       1.8066
   1422.61252       1.3484       1.5976    1422.61252       1.3486       1.5965
   1422.59727       1.2029       1.4590    1422.59727       1.2031       1.4580
   1422.58201       1.0802       1.4510    1422.58201       1.0804       1.4500
   1422.56675       0.9996       1.2571    1422.56675       0.9997       1.2563
   1422.55149       1.0254       1.1949    1422.55149       1.0255       1.1941
   1422.53623       0.9720       1.1915    1422.53623       0.9722       1.1907
   1422.52097       0.8751       1.1038    1422.52097       0.8752       1.1031
   1422.50571       0.7831       1.0166    1422.50571       0.7832       1.0159
   1422.49045       0.8008       0.8879    1422.49045       0.8009       0.8873
   1422.47520       0.7222       0.8246    1422.47520       0.7223       0.8240
   1422.45994       0.7469       0.8633    1422.45994       0.7470       0.8627
   1422.44468       0.6689       0.8757    1422.44468       0.6690       0.8751
   1422.42942       0.6662       0.8420    1422.42942       0.6663       0.8415
   1422.41416       0.6886       0.8187    1422.41416       0.6887       0.8182
   1422.39890       0.6584       0.7685    1422.39890       0.6585       0.7680
   1422.38364       0.6567       0.7169    1422.38364       0.6568       0.7165
   1422.36838       0.6295       0.8048    1422.36838       0.6296       0.8043
   1422.35312       0.6340       0.7044    1422.35312       0.6341       0.7040
   1422.33787       0.6288       0.7434    1422.33787       0.6289       0.7429
   1422.32261       0.6056       0.7307    1422.32261       0.6057       0.7303
   1422.30735       0.5497       0.7322    1422.30735       0.5498       0.7317
   1422.29209       0.5871       0.6954    1422.29209       0.5872       0.6950
   1422.27683       0.5972       0.7062    1422.27683       0.5973       0.7057
   1422.26157       0.5483       0.6638    1422.26157       0.5484       0.6633
   1422.24631       0.5701       0.7385    1422.24631       0.5702       0.7380
   1422.23105       0.5540       0.6757    1422.23105       0.5540       0.6753
   1422.21580       0.5249       0.7961    1422.21580       0.5250       0.7956
   1422.20054       0.5107       0.7118    1422.20054       0.5108       0.7113
   1422.18528       0.5282       0.7152    1422.18528       0.5283       0.7147
   1422.17002       0.5190       0.7874    1422.17002       0.5191       0.7869
   1422.15476       0.5602       0.7701    1422.15476       0.5603       0.7695
   1422.13950       0.5845       0.6834    1422.13950       0.5846       0.6829
   1422.12424       0.6127       0.6634    1422.12424       0.6128       0.6630
   1422.10898       0.6005       0.7759    1422.10898       0.6006       0.7754
   1422.09373       0.5777       0.6714    1422.09373       0.5778       0.6709
   1422.07847       0.5428       0.6482    1422.07847       0.5428       0.6478
   1422.06321       0.5545       0.6693    1422.06321       0.5546       0.6689
   1422.04795       0.5529       0.7237    1422.04795       0.5530       0.7232
   1422.03269       0.5591       0.7627    1422.03269       0.5592       0.7622
   1422.01743       0.5648       0.6699    1422.01743       0.5649       0.6695
   1422.00217       0.5654       0.6093    1422.00217       0.5655       0.6089
   1421.98691       0.5357       0.5913    1421.98691       0.5358       0.5909
   1421.97166       0.5451       0.7087    1421.97166       0.5452       0.7083
   1421.95640       0.5256       0.6717    1421.95640       0.5257       0.6713
   1421.94114       0.5185       0.7057    1421.94114       0.5186       0.7052
   1421.92588       0.5810       0.6785    1421.92588       0.5811       0.6781
   1421.91062       0.5642       0.6816    1421.91062       0.5643       0.6811
   1421.89536       0.5489       0.7063    1421.89536       0.5490       0.7059
   1421.88010       0.5964       0.7277    1421.88010       0.5965       0.7272
   1421.86484       0.5744       0.6348    1421.86484       0.5745       0.6344
   1421.84958       0.5636       0.6478    1421.84958       0.5636       0.6474
   1421.83433       0.5419       0.6600    1421.83433       0.5420       0.6596
   1421.81907       0.5806       0.7187    1421.81907       0.5807       0.7182
   1421.80381       0.5785       0.6673    1421.80381       0.5786       0.6668
   1421.78855       0.5763       0.6746    1421.78855       0.5764       0.6742
   1421.77329       0.5286       0.6694    1421.77329       0.5287       0.6689
   1421.75803       0.5167       0.6177    1421.75803       0.5168       0.6173
   1421.74277       0.5304       0.6889    1421.74277       0.5305       0.6884
   1421.72751       0.5339       0.6938    1421.72751       0.5339       0.6933
   1421.71226       0.5349       0.6683    1421.71226       0.5350       0.6678
   1421.69700       0.5594       0.6855    1421.69700       0.5595       0.6850
   1421.68174       0.5855       0.6688    1421.68174       0.5856       0.6684
   1421.66648       0.5454       0.6415    1421.66648       0.5455       0.6411
   1421.65122       0.5593       0.6562    1421.65122       0.5594       0.6558
   1421.63596       0.6176       0.6168    1421.63596       0.6177       0.6164
   1421.62070       0.5518       0.6010    1421.62070       0.5519       0.6006
   1421.60544       0.5409       0.6301    1421.60544       0.5410       0.6297
   1421.59019       0.5415       0.6038    1421.59019       0.5416       0.6034
   1421.57493       0.4731       0.6300    1421.57493       0.4732       0.6295
   1421.55967       0.5427       0.6993    1421.55967       0.5427       0.6988
   1421.54441       0.5810       0.5923    1421.54441       0.5810       0.5919
   1421.52915       0.5250       0.6071    1421.52915       0.5251       0.6066
   1421.51389       0.5397       0.6187    1421.51389       0.5398       0.6183
   1421.49863       0.6023       0.6573    1421.49863       0.6024       0.6569
   1421.48337       0.5306       0.6028    1421.48337       0.5307       0.6024
   1421.46812       0.5425       0.6457    1421.46812       0.5426       0.6453
   1421.45286       0.5844       0.6038    1421.45286       0.5845       0.6034
   1421.43760       0.5517       0.6297    1421.43760       0.5518       0.6292
   1421.42234       0.5697       0.6395    1421.42234       0.5698       0.6391
   1421.40708       0.5496       0.6752    1421.40708       0.5496       0.6748
   1421.39182       0.5634       0.6494    1421.39182       0.5634       0.6490
   1421.37656       0.5820       0.5395    1421.37656       0.5821       0.5391
   1421.36130       0.5800       0.6566    1421.36130       0.5801       0.6561
   1421.34604       0.5123       0.5890    1421.34604       0.5124       0.5886
   1421.33079       0.4968       0.6391    1421.33079       0.4969       0.6386
   1421.31553       0.5384       0.6211    1421.31553       0.5385       0.6207
   1421.30027       0.5704       0.5965    1421.30027       0.5704       0.5961
   1421.28501       0.5813       0.6368    1421.28501       0.5814       0.6364
   1421.26975       0.5710       0.6006    1421.26975       0.5711       0.6002
   1421.25449       0.5516       0.6070    1421.25449       0.5516       0.6066
   1421.23923       0.5976       0.6532    1421.23923       0.5977       0.6528
   1421.22397       0.6034       0.7010    1421.22397       0.6035       0.7006
   1421.20872       0.6053       0.5794    1421.20872       0.6054       0.5790
   1421.19346       0.5931       0.5540    1421.19346       0.5932       0.5537
   1421.17820       0.5654       0.5881    1421.17820       0.5655       0.5877
   1421.16294       0.5941       0.6010    1421.16294       0.5942       0.6006
   1421.14768       0.5932       0.6873    1421.14768       0.5933       0.6869
   1421.13242       0.5192       0.6525    1421.13242       0.5193       0.6521
   1421.11716       0.6083       0.6613    1421.11716       0.6084       0.6608
   1421.10190       0.5933       0.6836    1421.10190       0.5934       0.6831
   1421.08665       0.5342       0.6718    1421.08665       0.5343       0.6713
   1421.07139       0.5473       0.5803    1421.07139       0.5474       0.5799
   1421.05613       0.5486       0.6705    1421.05613       0.5486       0.6700
   1421.04087       0.5058       0.6629    1421.04087       0.5059       0.6625
   1421.02561       0.5299       0.5904    1421.02561       0.5300       0.5900
   1421.01035       0.5418       0.5882    1421.01035       0.5419       0.5878
   1420.99509       0.5793       0.5731    1420.99509       0.5794       0.5727
   1420.97983       0.6380       0.5751    1420.97983       0.6381       0.5747
   1420.96458       0.6414       0.6139    1420.96458       0.6415       0.6135
   1420.94932       0.5432       0.5316    1420.94932       0.5433       0.5313
   1420.93406       0.5348       0.6230    1420.93406       0.5349       0.6226
   1420.91880       0.5752       0.6152    1420.91880       0.5753       0.6148
   1420.90354       0.6048       0.5970    1420.90354       0.6049       0.5966
   1420.88828       0.5748       0.5833    1420.88828       0.5749       0.5830
   1420.87302       0.5126       0.6226    1420.87302       0.5127       0.6222
   1420.85776       0.6287       0.5979    1420.85776       0.6288       0.5975
   1420.84250       0.5555       0.6149    1420.84250       0.5556       0.6145
   1420.82725       0.5578       0.6474    1420.82725       0.5579       0.6470
   1420.81199       0.5600       0.5664    1420.81199       0.5601       0.5660
   1420.79673       0.5278       0.5618    1420.79673       0.5279       0.5615
   1420.78147       0.5130       0.4888    1420.78147       0.5131       0.4884
   1420.76621       0.5014       0.5339    1420.76621       0.5015       0.5336
   1420.75095       0.5298       0.4969    1420.75095       0.5299       0.4966
   1420.73569       0.5502       0.5936    1420.73569       0.5503       0.5932
   1420.72043       0.5598       0.5827    1420.72043       0.5599       0.5823
   1420.70518       0.6049       0.5382    1420.70518       0.6050       0.5379
   1420.68992       0.6608       0.6933    1420.68992       0.6609       0.6928
   1420.67466       0.6924       0.8027    1420.67466       0.6925       0.8021
   1420.65940       0.7724       0.8490    1420.65940       0.7725       0.8484
   1420.64414       0.9419       1.0406    1420.64414       0.9421       1.0399
   1420.62888       1.1263       1.3143    1420.62888       1.1265       1.3134
   1420.61362       1.2455       1.4028    1420.61362       1.2457       1.4019
   1420.59836       1.2575       1.4214    1420.59836       1.2577       1.4204
   1420.58311       1.1930       1.4257    1420.58311       1.1932       1.4247
   1420.56785       1.1449       1.3952    1420.56785       1.1451       1.3943
   1420.55259       1.0184       1.1845    1420.55259       1.0186       1.1837
   1420.53733       0.7427       0.8697    1420.53733       0.7428       0.8691
   1420.52207       0.4702       0.4667    1420.52207       0.4703       0.4664
   1420.50681       0.0916       0.0533    1420.50681       0.0916       0.0533
   1420.49155      -0.1643      -0.4283    1420.49155      -0.1644      -0.4280
   1420.47629      -0.1721      -0.3409    1420.47629      -0.1722      -0.3407
   1420.46104       0.0371      -0.1780    1420.46104       0.0371      -0.1779
   1420.44578       0.2088       0.2746    1420.44578       0.2088       0.2744
   1420.43052      -0.3721      -0.6002    1420.43052      -0.3722      -0.5997
   1420.41526      -0.7875      -1.3082    1420.41526      -0.7876      -1.3073
   1420.40000      -2.2148      -3.0131    1420.40000      -2.2151      -3.0110
   1420.38474      -1.5781      -2.0428    1420.38474      -1.5784      -2.0414
   1420.36948       0.9349       1.1063    1420.36948       0.9350       1.1056
   1420.35422       3.6034       4.4157    1420.35422       3.6040       4.4127
   1420.33896       0.4951       0.4891    1420.33896       0.4952       0.4888
   1420.32371       0.1699       0.0108    1420.32371       0.1700       0.0108
   1420.30845       0.3901       0.3120    1420.30845       0.3901       0.3118
   1420.29319       0.6792       0.6452    1420.29319       0.6793       0.6448
   1420.27793       0.6353       0.6152    1420.27793       0.6354       0.6148
   1420.26267       0.6004       0.5717    1420.26267       0.6005       0.5713
   1420.24741       0.5439       0.6881    1420.24741       0.5440       0.6876
   1420.23215       0.5852       0.6348    1420.23215       0.5853       0.6344
   1420.21689       0.6086       0.5369    1420.21689       0.6087       0.5366
   1420.20164       0.5897       0.5802    1420.20164       0.5898       0.5798
   1420.18638       0.5823       0.6591    1420.18638       0.5824       0.6586
   1420.17112       0.5568       0.5829    1420.17112       0.5569       0.5826
   1420.15586       0.6252       0.5846    1420.15586       0.6253       0.5842
   1420.14060       0.5888       0.5919    1420.14060       0.5889       0.5915
   1420.12534       0.6959       0.5982    1420.12534       0.6961       0.5978
   1420.11008       0.6159       0.5411    1420.11008       0.6160       0.5408
   1420.09482       0.5207       0.6004    1420.09482       0.5208       0.6000
   1420.07957       0.6081       0.5547    1420.07957       0.6082       0.5544
   1420.06431       0.6212       0.5782    1420.06431       0.6213       0.5778
   1420.04905       0.6373       0.6361    1420.04905       0.6374       0.6357
   1420.03379       0.6212       0.4692    1420.03379       0.6213       0.4689
   1420.01853       0.6013       0.6081    1420.01853       0.6014       0.6077
   1420.00327       0.5761       0.5606    1420.00327       0.5762       0.5602
   1419.98801       0.6152       0.5615    1419.98801       0.6153       0.5612
   1419.97275       0.5804       0.5321    1419.97275       0.5805       0.5317
   1419.95750       0.5245       0.5929    1419.95750       0.5245       0.5925
   1419.94224       0.6288       0.5643    1419.94224       0.6289       0.5639
   1419.92698       0.6079       0.5313    1419.92698       0.6080       0.5309
   1419.91172       0.5960       0.5484    1419.91172       0.5961       0.5480
   1419.89646       0.6022       0.5801    1419.89646       0.6023       0.5797
   1419.88120       0.6331       0.5694    1419.88120       0.6332       0.5690
   1419.86594       0.6219       0.5541    1419.86594       0.6220       0.5538
   1419.85068       0.5784       0.5859    1419.85068       0.5785       0.5855
   1419.83542       0.5950       0.5986    1419.83542       0.5951       0.5982
   1419.82017       0.5562       0.5805    1419.82017       0.5563       0.5801
   1419.80491       0.5551       0.5380    1419.80491       0.5552       0.5376
   1419.78965       0.5644       0.6356    1419.78965       0.5645       0.6352
   1419.77439       0.5371       0.5810    1419.77439       0.5372       0.5806
   1419.75913       0.5602       0.5849    1419.75913       0.5603       0.5845
   1419.74387       0.5428       0.5289    1419.74387       0.5429       0.5286
   1419.72861       0.5377       0.5694    1419.72861       0.5378       0.5690
   1419.71335       0.5768       0.5912    1419.71335       0.5769       0.5908
   1419.69810       0.6059       0.5345    1419.69810       0.6060       0.5342
   1419.68284       0.5388       0.5480    1419.68284       0.5389       0.5476
   1419.66758       0.6207       0.5168    1419.66758       0.6208       0.5165
   1419.65232       0.5643       0.6321    1419.65232       0.5643       0.6317
   1419.63706       0.6288       0.6268    1419.63706       0.6289       0.6263
   1419.62180       0.5560       0.5807    1419.62180       0.5560       0.5803
   1419.60654       0.5853       0.5743    1419.60654       0.5854       0.5739
   1419.59128       0.5444       0.5509    1419.59128       0.5445       0.5505
   1419.57603       0.5067       0.5379    1419.57603       0.5068       0.5375
   1419.56077       0.5505       0.6504    1419.56077       0.5506       0.6500
   1419.54551       0.5851       0.5778    1419.54551       0.5852       0.5774
   1419.53025       0.6180       0.5896    1419.53025       0.6181       0.5892
   1419.51499       0.5980       0.6291    1419.51499       0.5981       0.6287
   1419.49973       0.5848       0.5767    1419.49973       0.5849       0.5763
   1419.48447       0.6385       0.6995    1419.48447       0.6386       0.6990
   1419.46921       0.5976       0.6412    1419.46921       0.5977       0.6407
   1419.45396       0.6210       0.5564    1419.45396       0.6211       0.5560
   1419.43870       0.6618       0.6022    1419.43870       0.6619       0.6018
   1419.42344       0.5708       0.6372    1419.42344       0.5709       0.6368
   1419.40818       0.6438       0.5473    1419.40818       0.6439       0.5469
   1419.39292       0.6407       0.5856    1419.39292       0.6408       0.5852
   1419.37766       0.5817       0.5645    1419.37766       0.5818       0.5641
   1419.36240       0.5730       0.5214    1419.36240       0.5731       0.5210
   1419.34714       0.6231       0.5638    1419.34714       0.6232       0.5634
   1419.33188       0.5933       0.6095    1419.33188       0.5934       0.6091
   1419.31663       0.5900       0.6051    1419.31663       0.5901       0.6047
   1419.30137       0.5870       0.5784    1419.30137       0.5870       0.5780
   1419.28611       0.6059       0.6048    1419.28611       0.6060       0.6043
   1419.27085       0.6234       0.6174    1419.27085       0.6235       0.6169
   1419.25559       0.6164       0.5077    1419.25559       0.6165       0.5074
   1419.24033       0.5891       0.5843    1419.24033       0.5892       0.5839
   1419.22507       0.5761       0.6017    1419.22507       0.5762       0.6013
   1419.20981       0.5583       0.6559    1419.20981       0.5584       0.6555
   1419.19456       0.5927       0.6628    1419.19456       0.5928       0.6623
   1419.17930       0.5826       0.5876    1419.17930       0.5827       0.5872
   1419.16404       0.5925       0.5943    1419.16404       0.5926       0.5939
   1419.14878       0.5591       0.6003    1419.14878       0.5592       0.5999
   1419.13352       0.6151       0.5816    1419.13352       0.6152       0.5812
   1419.11826       0.6239       0.6107    1419.11826       0.6240       0.6103
   1419.10300       0.5956       0.6050    1419.10300       0.5957       0.6046
   1419.08774       0.6269       0.6029    1419.08774       0.6270       0.6025
   1419.07249       0.6031       0.6291    1419.07249       0.6032       0.6287
   1419.05723       0.6617       0.6178    1419.05723       0.6618       0.6174
   1419.04197       0.6505       0.5844    1419.04197       0.6506       0.5840
   1419.02671       0.5758       0.6855    1419.02671       0.5759       0.6851
   1419.01145       0.5639       0.6571    1419.01145       0.5640       0.6566
   1418.99619       0.6126       0.6845    1418.99619       0.6127       0.6840
   1418.98093       0.5491       0.6999    1418.98093       0.5492       0.6994
   1418.96567       0.6299       0.7397    1418.96567       0.6300       0.7392
   1418.95042       0.6014       0.5812    1418.95042       0.6015       0.5808
   1418.93516       0.6216       0.5341    1418.93516       0.6217       0.5337
   1418.91990       0.6529       0.5668    1418.91990       0.6530       0.5665
   1418.90464       0.6015       0.6662    1418.90464       0.6016       0.6657
   1418.88938       0.5514       0.7182    1418.88938       0.5515       0.7177
   1418.87412       0.6158       0.6967    1418.87412       0.6159       0.6962
   1418.85886       0.6210       0.6229    1418.85886       0.6211       0.6224
   1418.84360       0.5834       0.6703    1418.84360       0.5835       0.6698
   1418.82834       0.5899       0.6149    1418.82834       0.5900       0.6145
   1418.81309       0.6166       0.6522    1418.81309       0.6167       0.6517
   1418.79783       0.6342       0.6502    1418.79783       0.6343       0.6498
   1418.78257       0.5876       0.7118    1418.78257       0.5877       0.7114
   1418.76731       0.5068       0.6255    1418.76731       0.5069       0.6250
   1418.75205       0.5358       0.6775    1418.75205       0.5359       0.6770
   1418.73679       0.6064       0.6645    1418.73679       0.6065       0.6641
   1418.72153       0.6484       0.6075    1418.72153       0.6485       0.6071
   1418.70627       0.5432       0.7066    1418.70627       0.5433       0.7061
   1418.69102       0.5835       0.6237    1418.69102       0.5836       0.6232
   1418.67576       0.6332       0.6740    1418.67576       0.6333       0.6735
   1418.66050       0.5419       0.6596    1418.66050       0.5420       0.6592
   1418.64524       0.5236       0.7135    1418.64524       0.5237       0.7130
   1418.62998       0.5652       0.6555    1418.62998       0.5653       0.6550
   1418.61472       0.6609       0.7105    1418.61472       0.6610       0.7100
   1418.59946       0.6011       0.6206    1418.59946       0.6012       0.6201
   1418.58420       0.6071       0.7058    1418.58420       0.6072       0.7053
   1418.56895       0.5640       0.6506    1418.56895       0.5641       0.6502
   1418.55369       0.5384       0.6831    1418.55369       0.5385       0.6826
   1418.53843       0.5586       0.7199    1418.53843       0.5586       0.7194
   1418.52317       0.6664       0.7325    1418.52317       0.6665       0.7320
   1418.50791       0.5877       0.7031    1418.50791       0.5878       0.7026
   1418.49265       0.5754       0.6646    1418.49265       0.5755       0.6642
   1418.47739       0.6005       0.6524    1418.47739       0.6006       0.6519
   1418.46213       0.5989       0.7398    1418.46213       0.5990       0.7393
   1418.44687       0.5637       0.7148    1418.44687       0.5638       0.7143
   1418.43162       0.6029       0.7367    1418.43162       0.6030       0.7362
   1418.41636       0.5758       0.6964    1418.41636       0.5759       0.6959
   1418.40110       0.6033       0.7560    1418.40110       0.6034       0.7555
   1418.38584       0.6107       0.8022    1418.38584       0.6108       0.8017
   1418.37058       0.5701       0.7400    1418.37058       0.5702       0.7395
   1418.35532       0.5207       0.7085    1418.35532       0.5208       0.7080
   1418.34006       0.6146       0.7546    1418.34006       0.6147       0.7541
   1418.32480       0.5830       0.7727    1418.32480       0.5831       0.7722
   1418.30955       0.5898       0.6774    1418.30955       0.5898       0.6769
   1418.29429       0.5821       0.6976    1418.29429       0.5822       0.6972
   1418.27903       0.6185       0.6933    1418.27903       0.6186       0.6928
   1418.26377       0.5971       0.6127    1418.26377       0.5972       0.6123
   1418.24851       0.5892       0.7508    1418.24851       0.5893       0.7503
   1418.23325       0.6133       0.7159    1418.23325       0.6134       0.7154
   1418.21799       0.5859       0.7479    1418.21799       0.5860       0.7474
   1418.20273       0.6251       0.7047    1418.20273       0.6252       0.7043
   1418.18748       0.5954       0.7586    1418.18748       0.5955       0.7581
   1418.17222       0.6020       0.7720    1418.17222       0.6021       0.7715
   1418.15696       0.6160       0.7402    1418.15696       0.6161       0.7397
   1418.14170       0.5968       0.7214    1418.14170       0.5969       0.7209
   1418.12644       0.5693       0.6290    1418.12644       0.5693       0.6286
   1418.11118       0.5660       0.7045    1418.11118       0.5661       0.7041
   1418.09592       0.5232       0.7028    1418.09592       0.5233       0.7023
   1418.08066       0.5621       0.8002    1418.08066       0.5621       0.7996
   1418.06541       0.6169       0.7446    1418.06541       0.6170       0.7441
   1418.05015       0.5981       0.8005    1418.05015       0.5982       0.8000
   1418.03489       0.5720       0.7669    1418.03489       0.5721       0.7663
   1418.01963       0.5186       0.7793    1418.01963       0.5187       0.7788
   1418.00437       0.5287       0.7183    1418.00437       0.5288       0.7179
   1417.98911       0.5572       0.7568    1417.98911       0.5573       0.7563
   1417.97385       0.5289       0.7486    1417.97385       0.5290       0.7481
   1417.95859       0.5698       0.7705    1417.95859       0.5699       0.7700
   1417.94333       0.5232       0.7208    1417.94333       0.5233       0.7203
   1417.92808       0.5979       0.7390    1417.92808       0.5980       0.7385
   1417.91282       0.5869       0.7336    1417.91282       0.5870       0.7331
   1417.89756       0.5803       0.6504    1417.89756       0.5804       0.6500
   1417.88230       0.4904       0.7788    1417.88230       0.4905       0.7783
   1417.86704       0.5350       0.7409    1417.86704       0.5351       0.7404
   1417.85178       0.5361       0.7370    1417.85178       0.5362       0.7365
   1417.83652       0.5574       0.7406    1417.83652       0.5575       0.7401
   1417.82126       0.5715       0.7395    1417.82126       0.5716       0.7390
   1417.80601       0.6097       0.6763    1417.80601       0.6098       0.6759
   1417.79075       0.5449       0.7877    1417.79075       0.5450       0.7871
   1417.77549       0.5305       0.8113    1417.77549       0.5306       0.8108
   1417.76023       0.5045       0.7619    1417.76023       0.5046       0.7614
   1417.74497       0.5588       0.7375    1417.74497       0.5589       0.7371
   1417.72971       0.5702       0.7975    1417.72971       0.5703       0.7970
   1417.71445       0.5231       0.7377    1417.71445       0.5232       0.7372
   1417.69919       0.5520       0.7462    1417.69919       0.5521       0.7457
   1417.68394       0.5574       0.7372    1417.68394       0.5575       0.7367
   1417.66868       0.5201       0.6818    1417.66868       0.5202       0.6814
   1417.65342       0.5327       0.7227    1417.65342       0.5328       0.7222
   1417.63816       0.5075       0.7448    1417.63816       0.5076       0.7443
   1417.62290       0.5005       0.6664    1417.62290       0.5006       0.6660
   1417.60764       0.5230       0.6775    1417.60764       0.5231       0.6770
   1417.59238       0.5557       0.8044    1417.59238       0.5558       0.8038
   1417.57712       0.5242       0.7371    1417.57712       0.5243       0.7366
   1417.56187       0.6006       0.7548    1417.56187       0.6007       0.7543
   1417.54661       0.5810       0.6998    1417.54661       0.5811       0.6993
   1417.53135       0.5646       0.7068    1417.53135       0.5646       0.7063
   1417.51609       0.4647       0.6729    1417.51609       0.4647       0.6725
   1417.50083       0.4608       0.6820    1417.50083       0.4609       0.6816
   1417.48557       0.5333       0.7769    1417.48557       0.5334       0.7764
   1417.47031       0.4781       0.8146    1417.47031       0.4782       0.8140
   1417.45505       0.5077       0.7370    1417.45505       0.5078       0.7365
   1417.43979       0.5402       0.7671    1417.43979       0.5403       0.7665
   1417.42454       0.5158       0.7553    1417.42454       0.5159       0.7548
   1417.40928       0.5415       0.7817    1417.40928       0.5416       0.7812
   1417.39402       0.4413       0.7978    1417.39402       0.4413       0.7973
   1417.37876       0.4754       0.7378    1417.37876       0.4754       0.7373
   1417.36350       0.5049       0.7536    1417.36350       0.5050       0.7531
   1417.34824       0.5457       0.7567    1417.34824       0.5458       0.7562
   1417.33298       0.5835       0.7771    1417.33298       0.5836       0.7766
   1417.31772       0.4622       0.7289    1417.31772       0.4623       0.7284
   1417.30247       0.5146       0.7485    1417.30247       0.5146       0.7480
   1417.28721       0.5534       0.7137    1417.28721       0.5535       0.7132
   1417.27195       0.5981       0.7932    1417.27195       0.5982       0.7926
   1417.25669       0.5674       0.7486    1417.25669       0.5675       0.7481
   1417.24143       0.5683       0.8183    1417.24143       0.5684       0.8177
   1417.22617       0.4538       0.7442    1417.22617       0.4538       0.7437
   1417.21091       0.5161       0.7286    1417.21091       0.5162       0.7281
   1417.19565       0.4727       0.7778    1417.19565       0.4728       0.7773
   1417.18040       0.5086       0.7405    1417.18040       0.5087       0.7400
   1417.16514       0.4933       0.7999    1417.16514       0.4933       0.7994
   1417.14988       0.4956       0.6768    1417.14988       0.4957       0.6764
   1417.13462       0.5110       0.8115    1417.13462       0.5111       0.8110
   1417.11936       0.5388       0.7293    1417.11936       0.5389       0.7288
   1417.10410       0.5419       0.7033    1417.10410       0.5419       0.7028
   1417.08884       0.4684       0.7403    1417.08884       0.4685       0.7398
   1417.07358       0.5361       0.7858    1417.07358       0.5362       0.7853
   1417.05833       0.5405       0.8034    1417.05833       0.5406       0.8029
   1417.04307       0.4629       0.7281    1417.04307       0.4629       0.7276
   1417.02781       0.4424       0.6948    1417.02781       0.4425       0.6943
   1417.01255       0.4990       0.8315    1417.01255       0.4991       0.8309
   1416.99729       0.5074       0.7732    1416.99729       0.5075       0.7727
   1416.98203       0.5510       0.7822    1416.98203       0.5511       0.7817
   1416.96677       0.5245       0.7348    1416.96677       0.5245       0.7343
   1416.95151       0.5198       0.7573    1416.95151       0.5199       0.7568
   1416.93625       0.4708       0.8031    1416.93625       0.4709       0.8026
   1416.92100       0.5333       0.7568    1416.92100       0.5334       0.7563
   1416.90574       0.4971       0.8293    1416.90574       0.4971       0.8287
   1416.89048       0.4787       0.7850    1416.89048       0.4788       0.7845
   1416.87522       0.4925       0.8039    1416.87522       0.4926       0.8033
   1416.85996       0.4086       0.7400    1416.85996       0.4087       0.7395
   1416.84470       0.4905       0.7265    1416.84470       0.4906       0.7261
   1416.82944       0.5170       0.7410    1416.82944       0.5171       0.7405
   1416.81418       0.4733       0.7695    1416.81418       0.4734       0.7689
   1416.79893       0.5133       0.7375    1416.79893       0.5134       0.7370
   1416.78367       0.4915       0.7142    1416.78367       0.4916       0.7137
   1416.76841       0.5183       0.7873    1416.76841       0.5184       0.7868
   1416.75315       0.5146       0.7090    1416.75315       0.5146       0.7086
   1416.73789       0.4869       0.7461    1416.73789       0.4870       0.7456
   1416.72263       0.5075       0.7439    1416.72263       0.5076       0.7434
   1416.70737       0.5293       0.7192    1416.70737       0.5294       0.7187
   1416.69211       0.5678       0.7429    1416.69211       0.5679       0.7424
   1416.67686       0.4534       0.7314    1416.67686       0.4535       0.7309
   1416.66160       0.4496       0.7424    1416.66160       0.4497       0.7419
   1416.64634       0.4458       0.7812    1416.64634       0.4459       0.7806
   1416.63108       0.4563       0.8319    1416.63108       0.4564       0.8313
   1416.61582       0.4969       0.7443    1416.61582       0.4969       0.7438
   1416.60056       0.4621       0.7599    1416.60056       0.4622       0.7594
   1416.58530       0.4988       0.7633    1416.58530       0.4989       0.7627
   1416.57004       0.5533       0.7092    1416.57004       0.5534       0.7087
   1416.55479       0.4511       0.7338    1416.55479       0.4512       0.7333
   1416.53953       0.4882       0.7689    1416.53953       0.4882       0.7683
   1416.52427       0.4831       0.7165    1416.52427       0.4831       0.7160
   1416.50901       0.5078       0.7445    1416.50901       0.5079       0.7440
   1416.49375       0.4700       0.8001    1416.49375       0.4701       0.7996
   1416.47849       0.5193       0.7361    1416.47849       0.5194       0.7356
   1416.46323       0.4864       0.6682    1416.46323       0.4864       0.6677
   1416.44797       0.4795       0.7464    1416.44797       0.4796       0.7459
   1416.43271       0.5328       0.6925    1416.43271       0.5329       0.6920
   1416.41746       0.4958       0.6396    1416.41746       0.4959       0.6392
   1416.40220       0.5263       0.7593    1416.40220       0.5264       0.7588
   1416.38694       0.4724       0.7230    1416.38694       0.4725       0.7225
   1416.37168       0.4896       0.7302    1416.37168       0.4897       0.7297
   1416.35642       0.5177       0.7148    1416.35642       0.5178       0.7143
   1416.34116       0.4437       0.6887    1416.34116       0.4438       0.6882
   1416.32590       0.4804       0.7622    1416.32590       0.4805       0.7617
   1416.31064       0.4916       0.6924    1416.31064       0.4917       0.6919
   1416.29539       0.4575       0.7163    1416.29539       0.4575       0.7158
   1416.28013       0.5648       0.7460    1416.28013       0.5649       0.7454
   1416.26487       0.4680       0.6552    1416.26487       0.4681       0.6548
   1416.24961       0.4384       0.6765    1416.24961       0.4385       0.6761
   1416.23435       0.4091       0.7562    1416.23435       0.4092       0.7557
   1416.21909       0.4993       0.7164    1416.21909       0.4994       0.7159
   1416.20383       0.4937       0.7370    1416.20383       0.4937       0.7365
   1416.18857       0.4411       0.7297    1416.18857       0.4412       0.7292
   1416.17332       0.4173       0.6437    1416.17332       0.4174       0.6432
   1416.15806       0.5323       0.7126    1416.15806       0.5324       0.7122
   1416.14280       0.4374       0.6566    1416.14280       0.4375       0.6561
   1416.12754       0.4968       0.6708    1416.12754       0.4969       0.6703
   1416.11228       0.3644       0.7139    1416.11228       0.3645       0.7134
   1416.09702       0.4990       0.7260    1416.09702       0.4991       0.7255
   1416.08176       0.4285       0.6484    1416.08176       0.4285       0.6479
   1416.06650       0.5122       0.6696    1416.06650       0.5123       0.6692
   1416.05125       0.4333       0.6903    1416.05125       0.4333       0.6898
   1416.03599       0.4707       0.6204    1416.03599       0.4708       0.6200
   1416.02073       0.4627       0.6402    1416.02073       0.4628       0.6398
   1416.00547       0.5107       0.6784    1416.00547       0.5108       0.6780
   1415.99021       0.4377       0.6561    1415.99021       0.4377       0.6557
   1415.97495       0.5345       0.6745    1415.97495       0.5346       0.6740
   1415.95969       0.4854       0.7125    1415.95969       0.4854       0.7120
   1415.94443       0.5084       0.6704    1415.94443       0.5085       0.6699
   1415.92917       0.5245       0.5999    1415.92917       0.5246       0.5995
   1415.91392       0.4804       0.6514    1415.91392       0.4804       0.6510
   1415.89866       0.5254       0.7100    1415.89866       0.5255       0.7096
   1415.88340       0.5251       0.6581    1415.88340       0.5252       0.6577
   1415.86814       0.4894       0.7015    1415.86814       0.4895       0.7010
   1415.85288       0.4831       0.6477    1415.85288       0.4832       0.6473
   1415.83762       0.4919       0.6270    1415.83762       0.4920       0.6266
   1415.82236       0.4704       0.6297    1415.82236       0.4705       0.6293
   1415.80710       0.5363       0.6894    1415.80710       0.5364       0.6889
   1415.79185       0.5152       0.6601    1415.79185       0.5153       0.6597
   1415.77659       0.4579       0.6741    1415.77659       0.4580       0.6736
   1415.76133       0.4622       0.6676    1415.76133       0.4623       0.6671
   1415.74607       0.5745       0.6245    1415.74607       0.5746       0.6241
   1415.73081       0.4124       0.6585    1415.73081       0.4125       0.6580
   1415.71555       0.4983       0.6575    1415.71555       0.4984       0.6571
   1415.70029       0.4729       0.6266    1415.70029       0.4730       0.6262
   1415.68503       0.5134       0.6847    1415.68503       0.5135       0.6842
   1415.66978       0.5719       0.5995    1415.66978       0.5720       0.5991
   1415.65452       0.5253       0.6508    1415.65452       0.5254       0.6504
   1415.63926       0.5659       0.7083    1415.63926       0.5660       0.7079
   1415.62400       0.5204       0.6831    1415.62400       0.5204       0.6827
   1415.60874       0.4390       0.6067    1415.60874       0.4391       0.6063
   1415.59348       0.5977       0.6389    1415.59348       0.5978       0.6384
   1415.57822       0.5185       0.6298    1415.57822       0.5186       0.6293
   1415.56296       0.4330       0.6437    1415.56296       0.4331       0.6433
   1415.54771       0.5427       0.5958    1415.54771       0.5428       0.5954
   1415.53245       0.5449       0.6611    1415.53245       0.5450       0.6606
   1415.51719       0.5463       0.6152    1415.51719       0.5464       0.6148
   1415.50193       0.5001       0.5454    1415.50193       0.5002       0.5451
   1415.48667       0.5113       0.6153    1415.48667       0.5114       0.6149
   1415.47141       0.5607       0.5721    1415.47141       0.5607       0.5717
   1415.45615       0.5495       0.6090    1415.45615       0.5496       0.6086
   1415.44089       0.5400       0.6687    1415.44089       0.5401       0.6682
   1415.42563       0.6197       0.5979    1415.42563       0.6198       0.5975
   1415.41038       0.5166       0.5303    1415.41038       0.5167       0.5300
   1415.39512       0.5263       0.5476    1415.39512       0.5264       0.5473
   1415.37986       0.5323       0.5775    1415.37986       0.5324       0.5771
   1415.36460       0.5246       0.5857    1415.36460       0.5247       0.5853
   1415.34934       0.5442       0.5576    1415.34934       0.5443       0.5572
   1415.33408       0.5453       0.5733    1415.33408       0.5454       0.5729
   1415.31882       0.4600       0.5501    1415.31882       0.4601       0.5497
   1415.30356       0.5748       0.5648    1415.30356       0.5749       0.5644
   1415.28831       0.5483       0.6380    1415.28831       0.5484       0.6376
   1415.27305       0.5152       0.6238    1415.27305       0.5153       0.6233
   1415.25779       0.5388       0.6046    1415.25779       0.5389       0.6041
   1415.24253       0.5314       0.6368    1415.24253       0.5315       0.6364
   1415.22727       0.5612       0.5738    1415.22727       0.5613       0.5734
   1415.21201       0.5267       0.5894    1415.21201       0.5268       0.5890
   1415.19675       0.5011       0.6056    1415.19675       0.5011       0.6052
   1415.18149       0.5158       0.4826    1415.18149       0.5159       0.4822
   1415.16624       0.5223       0.5908    1415.16624       0.5224       0.5904
   1415.15098       0.5876       0.4976    1415.15098       0.5877       0.4973
   1415.13572       0.5815       0.6188    1415.13572       0.5816       0.6184
   1415.12046       0.5469       0.6144    1415.12046       0.5469       0.6140
   1415.10520       0.5970       0.6384    1415.10520       0.5971       0.6380
   1415.08994       0.5304       0.5464    1415.08994       0.5304       0.5460
   1415.07468       0.4570       0.5246    1415.07468       0.4571       0.5242
   1415.05942       0.5458       0.6015    1415.05942       0.5459       0.6011
   1415.04417       0.5177       0.6692    1415.04417       0.5178       0.6687
   1415.02891       0.5626       0.5246    1415.02891       0.5627       0.5243
   1415.01365       0.5744       0.4404    1415.01365       0.5745       0.4401
   1414.99839       0.5874       0.5779    1414.99839       0.5875       0.5775
   1414.98313       0.5585       0.5497    1414.98313       0.5586       0.5494
   1414.96787       0.5075       0.5620    1414.96787       0.5075       0.5617
   1414.95261       0.5292       0.5933    1414.95261       0.5293       0.5929
   1414.93735       0.5440       0.5672    1414.93735       0.5441       0.5668
   1414.92209       0.5614       0.5034    1414.92209       0.5615       0.5030
   1414.90684       0.5196       0.4438    1414.90684       0.5197       0.4435
   1414.89158       0.5969       0.4917    1414.89158       0.5970       0.4913
   1414.87632       0.5630       0.5381    1414.87632       0.5631       0.5377
   1414.86106       0.5441       0.5808    1414.86106       0.5442       0.5804
   1414.84580       0.5777       0.5791    1414.84580       0.5778       0.5788
   1414.83054       0.5181       0.5274    1414.83054       0.5182       0.5271
   1414.81528       0.6038       0.5029    1414.81528       0.6039       0.5026
   1414.80002       0.5060       0.5121    1414.80002       0.5061       0.5117
   1414.78477       0.5579       0.5292    1414.78477       0.5580       0.5288
   1414.76951       0.6294       0.5384    1414.76951       0.6295       0.5381
   1414.75425       0.5693       0.4926    1414.75425       0.5694       0.4923
   1414.73899       0.6140       0.5717    1414.73899       0.6141       0.5713
   1414.72373       0.5864       0.4445    1414.72373       0.5865       0.4442
   1414.70847       0.5800       0.5602    1414.70847       0.5801       0.5599
   1414.69321       0.5439       0.5267    1414.69321       0.5440       0.5263
   1414.67795       0.5203       0.5468    1414.67795       0.5204       0.5465
   1414.66270       0.5716       0.5355    1414.66270       0.5717       0.5351
   1414.64744       0.5902       0.5049    1414.64744       0.5903       0.5045
   1414.63218       0.5918       0.5239    1414.63218       0.5918       0.5236
   1414.61692       0.6143       0.6503    1414.61692       0.6144       0.6499
   1414.60166       0.5197       0.5176    1414.60166       0.5198       0.5172
   1414.58640       0.5984       0.4623    1414.58640       0.5985       0.4620
   1414.57114       0.5312       0.5550    1414.57114       0.5313       0.5547
   1414.55588       0.6466       0.5374    1414.55588       0.6467       0.5370
   1414.54062       0.5907       0.4743    1414.54062       0.5908       0.4740
   1414.52537       0.5741       0.5219    1414.52537       0.5742       0.5215
   1414.51011       0.5553       0.5069    1414.51011       0.5554       0.5066
   1414.49485       0.6217       0.5641    1414.49485       0.6218       0.5638
   1414.47959       0.5705       0.4959    1414.47959       0.5706       0.4956
   1414.46433       0.5770       0.4364    1414.46433       0.5770       0.4361
   1414.44907       0.5085       0.4662    1414.44907       0.5086       0.4658
   1414.43381       0.5653       0.4648    1414.43381       0.5654       0.4645
   1414.41855       0.5704       0.5216    1414.41855       0.5705       0.5213
   1414.40330       0.5611       0.5997    1414.40330       0.5612       0.5993
   1414.38804       0.5295       0.4199    1414.38804       0.5296       0.4196
   1414.37278       0.4851       0.6081    1414.37278       0.4852       0.6077
   1414.35752       0.6086       0.4550    1414.35752       0.6087       0.4547
   1414.34226       0.4626       0.3958    1414.34226       0.4627       0.3956
   1414.32700       0.4898       0.5141    1414.32700       0.4899       0.5138
   1414.31174       0.4984       0.4415    1414.31174       0.4985       0.4412
   1414.29648       0.5955       0.4809    1414.29648       0.5956       0.4806
   1414.28123       0.5515       0.4540    1414.28123       0.5516       0.4537
   1414.26597       0.5295       0.4597    1414.26597       0.5295       0.4594
   1414.25071       0.5187       0.4249    1414.25071       0.5188       0.4246
   1414.23545       0.5004       0.4654    1414.23545       0.5004       0.4651
   1414.22019       0.5534       0.4681    1414.22019       0.5535       0.4678
   1414.20493       0.5951       0.5773    1414.20493       0.5952       0.5769
   1414.18967       0.6256       0.4677    1414.18967       0.6257       0.4674
   1414.17441       0.6003       0.4173    1414.17441       0.6004       0.4170
   1414.15916       0.5627       0.4477    1414.15916       0.5628       0.4474
   1414.14390       0.6382       0.4838    1414.14390       0.6383       0.4834
   1414.12864       0.4943       0.5351    1414.12864       0.4944       0.5347
   1414.11338       0.5943       0.4139    1414.11338       0.5944       0.4137
   1414.09812       0.5806       0.4820    1414.09812       0.5807       0.4817
   1414.08286       0.6010       0.4298    1414.08286       0.6011       0.4296
   1414.06760       0.5271       0.4553    1414.06760       0.5272       0.4550
   1414.05234       0.5594       0.4381    1414.05234       0.5595       0.4378
   1414.03708       0.5903       0.5120    1414.03708       0.5904       0.5117
   1414.02183       0.5713       0.5168    1414.02183       0.5714       0.5164
   1414.00657       0.6182       0.4200    1414.00657       0.6183       0.4197
   1413.99131       0.5844       0.4590    1413.99131       0.5845       0.4587
   1413.97605       0.5832       0.4296    1413.97605       0.5833       0.4293
   1413.96079       0.5591       0.3820    1413.96079       0.5591       0.3818
   1413.94553       0.5526       0.4807    1413.94553       0.5527       0.4804
   1413.93027       0.5300       0.5358    1413.93027       0.5301       0.5354
   1413.91501       0.5227       0.4463    1413.91501       0.5228       0.4460
   1413.89976       0.6080       0.5153    1413.89976       0.6081       0.5149
   1413.88450       0.4971       0.4374    1413.88450       0.4972       0.4371
   1413.86924       0.5278       0.4493    1413.86924       0.5279       0.4490
   1413.85398       0.5213       0.4623    1413.85398       0.5214       0.4620
   1413.83872       0.6230       0.4579    1413.83872       0.6231       0.4576
   1413.82346       0.5157       0.4050    1413.82346       0.5158       0.4048
   1413.80820       0.5289       0.4617    1413.80820       0.5290       0.4614
   1413.79294       0.5342       0.5055    1413.79294       0.5343       0.5051
   1413.77769       0.5558       0.5166    1413.77769       0.5559       0.5162
   1413.76243       0.5763       0.5138    1413.76243       0.5764       0.5135
   1413.74717       0.5599       0.4738    1413.74717       0.5600       0.4735
   1413.73191       0.5523       0.5284    1413.73191       0.5524       0.5281
   1413.71665       0.5797       0.5064    1413.71665       0.5798       0.5061
   1413.70139       0.5709       0.3809    1413.70139       0.5710       0.3807
   1413.68613       0.5394       0.4258    1413.68613       0.5394       0.4255
   1413.67087       0.5198       0.4132    1413.67087       0.5199       0.4130
   1413.65562       0.6077       0.4643    1413.65562       0.6078       0.4640
   1413.64036       0.5419       0.4953    1413.64036       0.5419       0.4950
   1413.62510       0.4983       0.3713    1413.62510       0.4983       0.3711
   1413.60984       0.5341       0.4828    1413.60984       0.5342       0.4825
   1413.59458       0.5373       0.3878    1413.59458       0.5374       0.3875
   1413.57932       0.5068       0.4503    1413.57932       0.5069       0.4500
   1413.56406       0.5234       0.4687    1413.56406       0.5235       0.4684
   1413.54880       0.6436       0.4059    1413.54880       0.6437       0.4056
   1413.53354       0.5208       0.4709    1413.53354       0.5209       0.4706
   1413.51829       0.5276       0.4179    1413.51829       0.5277       0.4176
   1413.50303       0.5518       0.4838    1413.50303       0.5519       0.4834
   1413.48777       0.5343       0.5905    1413.48777       0.5344       0.5901
   1413.47251       0.5402       0.4615    1413.47251       0.5403       0.4612
   1413.45725       0.4528       0.4550    1413.45725       0.4528       0.4547
   1413.44199       0.5518       0.5147    1413.44199       0.5519       0.5143
   1413.42673       0.5355       0.3768    1413.42673       0.5356       0.3765
   1413.41147       0.5537       0.4630    1413.41147       0.5538       0.4627
   1413.39622       0.4979       0.3915    1413.39622       0.4980       0.3913
