#     FILENAME=Skynet_58992_M31_35kpcRadius_44926_54546.A.onoff.cal.txt
#     BASENAME=Skynet_58992_M31_35kpcRadius_44926_54546
#      CONTROL=SKYNET
#     PROJCODE=Skynet_58992_M31_35kpcRadius_44926
#     DATAROOT=/raid/scratch/cyborg/SkynetData
#      DATADIR=/raid/scratch/cyborg
#     DATADIR2=/raid/scratch/cyborg/SkynetData/Skynet_58992_M31_35kpcRadius_44
#     SCANNAME=2018_05_24_20
#     SRC_NAME=M31_35kpcRadius
#     OBSERVER=unioncollege_21317
#     DATE_OBS=2020-05-23T07:29:49.360
#        OBSID=44926
#      SCANNUM=54546
#          MJD=58992.3123769
#          UTC=26989
#     SCANTYPE=onoff
#     DATAMODE=HIRES
#     RECEIVER=Rx1_2
#      OBSFREQ=1395.0000
# Actual_FREQ1=1423.0000,
# Actual_FREQ2=1423.0000
#    LO1Tuning=6873.0000
#     RFFILTER=1355_1435
#        OBSBW=-15.6250
#     EFFBANDW=15.6250
#        NCHAN=1024
#    STARTCHAN=51
#     STOPCHAN=972
#         TINT=0.3000
#         TBIN=0.00026214
#       ACCLEN=2048 
#     DURATION=205.50
#     EXPOSURE=158.08
#        FOCUS=36.895
#       RA,DEC=00:34:15.49, 39:17:37.60
#      RA(deg)=7.19264
#     DEC(deg)=39.29408
#   WIDTH(deg)=2.0194x0.0308
#    AZIM(deg)=55.3829
#    ELEV(deg)=21.1463
#     COORDREF=RA_DEC_
#         HREF=8.4804
#         VREF=39.2942
#      RADESYS=FK5
#       OFFSYS=RADEC
#      EQUINOX=2000.00
#     IFATTENS=17.00, 1.00
#   BALANCELEV=1.200 
#   POWER_XLYR=[0.19, 0.62] 
#       VELDEF=RADI-OBS 
#     VELOCITY=0.000 
#         NPOL=2 
#      POLMODE=Linear 
#      POLTYPE=XXYY 
#      WARNING=None 
#     NOISECAL=HI 
#       PRECAL=2 
#      POSTCAL=2 
#     CRYOTEMP=296 
#      BOXTEMP=31 
#         TSYS=XX1:116.84, YY1:144.51
#         TSYS=XX2:116.86, YY2:144.45
#         TCAL=XX1:9.18, YY1:10.14
#         TCAL=XX2:9.18, YY2:10.14
# Calibrated spectra: Tsys*(ON-OFF)/OFF 
#                
#                
#Freq1(MHz)         XX1          YY1   Freq2(MHz)       XX2         YY2 
   1430.03430       1.2445       1.7596    1430.03430       1.2447       1.7590
   1430.01904       1.5898       1.5837    1430.01904       1.5902       1.5831
   1430.00378       1.5218       1.6017    1430.00378       1.5221       1.6011
   1429.98853       1.4144       1.0612    1429.98853       1.4147       1.0608
   1429.97327       1.0410       1.7707    1429.97327       1.0412       1.7700
   1429.95801       1.0795       1.6298    1429.95801       1.0797       1.6292
   1429.94275       1.5955       1.6853    1429.94275       1.5958       1.6847
   1429.92749       1.2930       1.9774    1429.92749       1.2933       1.9766
   1429.91223       1.3652       1.8911    1429.91223       1.3655       1.8904
   1429.89697       1.4719       1.8419    1429.89697       1.4722       1.8412
   1429.88171       1.2097       1.8928    1429.88171       1.2099       1.8920
   1429.86646       1.1670       1.8221    1429.86646       1.1672       1.8214
   1429.85120       1.1857       1.7361    1429.85120       1.1859       1.7354
   1429.83594       1.2326       1.9305    1429.83594       1.2329       1.9298
   1429.82068       1.1783       1.5789    1429.82068       1.1786       1.5783
   1429.80542       1.1709       1.7367    1429.80542       1.1711       1.7360
   1429.79016       1.3084       1.8233    1429.79016       1.3087       1.8226
   1429.77490       1.5531       1.8987    1429.77490       1.5535       1.8980
   1429.75964       1.1216       1.7725    1429.75964       1.1218       1.7718
   1429.74438       1.5059       1.9528    1429.74438       1.5062       1.9520
   1429.72913       1.3394       2.0076    1429.72913       1.3397       2.0068
   1429.71387       1.2299       1.5544    1429.71387       1.2301       1.5538
   1429.69861       1.3462       1.7144    1429.69861       1.3464       1.7137
   1429.68335       1.2194       1.7288    1429.68335       1.2196       1.7281
   1429.66809       1.4940       1.4901    1429.66809       1.4943       1.4896
   1429.65283       1.1174       1.7313    1429.65283       1.1177       1.7307
   1429.63757       1.4107       1.7973    1429.63757       1.4110       1.7966
   1429.62231       1.1379       1.8590    1429.62231       1.1382       1.8582
   1429.60706       1.2476       1.6146    1429.60706       1.2479       1.6139
   1429.59180       1.3082       1.6836    1429.59180       1.3084       1.6829
   1429.57654       1.4097       2.0655    1429.57654       1.4100       2.0647
   1429.56128       1.2134       1.6776    1429.56128       1.2136       1.6770
   1429.54602       1.3803       1.4991    1429.54602       1.3806       1.4985
   1429.53076       1.0617       1.5938    1429.53076       1.0619       1.5932
   1429.51550       1.3413       1.7095    1429.51550       1.3416       1.7088
   1429.50024       1.3368       1.8232    1429.50024       1.3371       1.8224
   1429.48499       1.1334       1.6054    1429.48499       1.1336       1.6048
   1429.46973       1.5433       2.2681    1429.46973       1.5436       2.2672
   1429.45447       1.1170       1.7632    1429.45447       1.1172       1.7625
   1429.43921       1.1686       1.4436    1429.43921       1.1688       1.4431
   1429.42395       1.1136       1.4936    1429.42395       1.1139       1.4930
   1429.40869       1.0025       1.7356    1429.40869       1.0027       1.7350
   1429.39343       1.2986       1.4801    1429.39343       1.2989       1.4796
   1429.37817       1.1819       1.6967    1429.37817       1.1822       1.6961
   1429.36292       1.3808       1.7308    1429.36292       1.3811       1.7301
   1429.34766       1.2882       1.5113    1429.34766       1.2885       1.5107
   1429.33240       1.2529       1.9228    1429.33240       1.2531       1.9221
   1429.31714       1.0883       1.9497    1429.31714       1.0885       1.9490
   1429.30188       1.2787       2.0039    1429.30188       1.2789       2.0031
   1429.28662       1.1861       1.7924    1429.28662       1.1863       1.7917
   1429.27136       1.2891       1.8848    1429.27136       1.2894       1.8840
   1429.25610       1.3617       1.8645    1429.25610       1.3620       1.8637
   1429.24084       1.4434       1.7608    1429.24084       1.4437       1.7602
   1429.22559       1.2929       2.1243    1429.22559       1.2931       2.1235
   1429.21033       1.5100       1.9874    1429.21033       1.5103       1.9866
   1429.19507       1.5200       1.7908    1429.19507       1.5203       1.7901
   1429.17981       1.3167       1.5931    1429.17981       1.3169       1.5924
   1429.16455       1.1186       1.6238    1429.16455       1.1188       1.6232
   1429.14929       1.0425       1.6291    1429.14929       1.0427       1.6285
   1429.13403       1.1165       1.8866    1429.13403       1.1168       1.8858
   1429.11877       1.3563       1.3954    1429.11877       1.3565       1.3948
   1429.10352       1.0322       1.7384    1429.10352       1.0324       1.7377
   1429.08826       1.1356       1.6437    1429.08826       1.1358       1.6431
   1429.07300       0.9364       1.7527    1429.07300       0.9366       1.7520
   1429.05774       1.0362       1.6241    1429.05774       1.0364       1.6235
   1429.04248       1.2881       1.7870    1429.04248       1.2884       1.7863
   1429.02722       1.2402       1.7030    1429.02722       1.2404       1.7024
   1429.01196       1.3098       1.7638    1429.01196       1.3100       1.7631
   1428.99670       1.3084       1.8567    1428.99670       1.3087       1.8559
   1428.98145       1.0001       1.9863    1428.98145       1.0003       1.9855
   1428.96619       1.2959       1.7382    1428.96619       1.2962       1.7375
   1428.95093       1.2385       1.4959    1428.95093       1.2387       1.4953
   1428.93567       1.3307       1.9099    1428.93567       1.3309       1.9092
   1428.92041       1.3448       2.1302    1428.92041       1.3451       2.1294
   1428.90515       1.1491       1.6076    1428.90515       1.1493       1.6069
   1428.88989       0.9662       1.7420    1428.88989       0.9664       1.7413
   1428.87463       1.1345       1.5819    1428.87463       1.1347       1.5813
   1428.85938       1.3824       1.5729    1428.85938       1.3826       1.5723
   1428.84412       1.3142       1.8400    1428.84412       1.3144       1.8392
   1428.82886       1.4336       1.4043    1428.82886       1.4338       1.4038
   1428.81360       1.2551       1.9503    1428.81360       1.2554       1.9496
   1428.79834       1.5164       1.9737    1428.79834       1.5167       1.9729
   1428.78308       1.3114       1.7458    1428.78308       1.3117       1.7451
   1428.76782       1.4293       1.9546    1428.76782       1.4296       1.9539
   1428.75256       1.2524       1.5638    1428.75256       1.2527       1.5632
   1428.73730       1.4025       1.8158    1428.73730       1.4028       1.8151
   1428.72205       0.9926       2.2868    1428.72205       0.9928       2.2859
   1428.70679       1.3025       1.9330    1428.70679       1.3028       1.9322
   1428.69153       1.1292       1.8548    1428.69153       1.1294       1.8541
   1428.67627       1.5175       1.6506    1428.67627       1.5178       1.6500
   1428.66101       1.2386       2.0071    1428.66101       1.2389       2.0063
   1428.64575       1.2610       1.7376    1428.64575       1.2612       1.7369
   1428.63049       1.2605       1.7224    1428.63049       1.2608       1.7217
   1428.61523       1.1552       1.5730    1428.61523       1.1555       1.5724
   1428.59998       1.1847       1.4702    1428.59998       1.1849       1.4697
   1428.58472       1.2058       1.8857    1428.58472       1.2061       1.8850
   1428.56946       1.2050       2.0190    1428.56946       1.2052       2.0182
   1428.55420       1.0722       1.5067    1428.55420       1.0725       1.5061
   1428.53894       1.2058       1.8341    1428.53894       1.2061       1.8334
   1428.52368       1.2775       1.5405    1428.52368       1.2778       1.5399
   1428.50842       1.4303       1.4173    1428.50842       1.4306       1.4168
   1428.49316       0.9247       1.9222    1428.49316       0.9249       1.9214
   1428.47791       1.0806       2.0211    1428.47791       1.0808       2.0203
   1428.46265       1.1273       1.8850    1428.46265       1.1275       1.8843
   1428.44739       1.0563       1.6246    1428.44739       1.0565       1.6239
   1428.43213       1.2085       1.9174    1428.43213       1.2088       1.9167
   1428.41687       1.1824       1.5941    1428.41687       1.1826       1.5935
   1428.40161       1.2852       1.8069    1428.40161       1.2855       1.8062
   1428.38635       1.4251       1.8085    1428.38635       1.4254       1.8078
   1428.37109       1.4842       1.7627    1428.37109       1.4845       1.7621
   1428.35583       1.5518       1.7857    1428.35583       1.5521       1.7850
   1428.34058       1.1217       1.8325    1428.34058       1.1219       1.8318
   1428.32532       1.4646       1.4349    1428.32532       1.4649       1.4343
   1428.31006       1.4142       1.7733    1428.31006       1.4145       1.7726
   1428.29480       1.3157       1.7565    1428.29480       1.3159       1.7558
   1428.27954       1.3882       1.8519    1428.27954       1.3885       1.8512
   1428.26428       1.2972       1.6618    1428.26428       1.2974       1.6611
   1428.24902       1.1596       1.8389    1428.24902       1.1598       1.8381
   1428.23376       1.3474       1.8402    1428.23376       1.3476       1.8395
   1428.21851       1.2824       1.8382    1428.21851       1.2826       1.8374
   1428.20325       1.2771       1.7728    1428.20325       1.2773       1.7722
   1428.18799       1.3750       1.6127    1428.18799       1.3752       1.6121
   1428.17273       1.1093       1.5122    1428.17273       1.1095       1.5117
   1428.15747       1.2665       2.0458    1428.15747       1.2667       2.0450
   1428.14221       1.2909       1.8943    1428.14221       1.2912       1.8936
   1428.12695       1.1347       1.9797    1428.12695       1.1349       1.9789
   1428.11169       1.3020       1.9326    1428.11169       1.3022       1.9319
   1428.09644       1.0556       2.0075    1428.09644       1.0558       2.0067
   1428.08118       0.9783       2.0685    1428.08118       0.9785       2.0677
   1428.06592       1.2828       1.8523    1428.06592       1.2831       1.8516
   1428.05066       1.4226       1.5875    1428.05066       1.4229       1.5869
   1428.03540       1.1639       1.4560    1428.03540       1.1641       1.4554
   1428.02014       1.2365       1.7126    1428.02014       1.2367       1.7120
   1428.00488       1.2558       1.8256    1428.00488       1.2561       1.8249
   1427.98962       1.5624       1.6652    1427.98962       1.5627       1.6645
   1427.97437       1.2451       1.7867    1427.97437       1.2453       1.7861
   1427.95911       1.4612       1.5067    1427.95911       1.4615       1.5062
   1427.94385       1.4003       1.7261    1427.94385       1.4006       1.7255
   1427.92859       1.2154       1.6151    1427.92859       1.2156       1.6144
   1427.91333       1.4084       1.8281    1427.91333       1.4086       1.8274
   1427.89807       1.3973       1.8790    1427.89807       1.3976       1.8782
   1427.88281       1.4668       1.6942    1427.88281       1.4671       1.6935
   1427.86755       1.3941       2.0188    1427.86755       1.3944       2.0180
   1427.85229       1.4156       1.6528    1427.85229       1.4159       1.6521
   1427.83704       1.3184       1.8599    1427.83704       1.3187       1.8592
   1427.82178       1.2306       1.7701    1427.82178       1.2308       1.7694
   1427.80652       1.2704       1.4129    1427.80652       1.2706       1.4123
   1427.79126       1.3187       1.8067    1427.79126       1.3189       1.8060
   1427.77600       1.3595       1.7720    1427.77600       1.3598       1.7713
   1427.76074       1.1386       1.8019    1427.76074       1.1388       1.8012
   1427.74548       1.2210       1.3816    1427.74548       1.2212       1.3810
   1427.73022       1.3292       1.5733    1427.73022       1.3295       1.5727
   1427.71497       1.3796       1.8635    1427.71497       1.3798       1.8628
   1427.69971       1.3772       1.6517    1427.69971       1.3775       1.6511
   1427.68445       1.3744       1.8467    1427.68445       1.3746       1.8460
   1427.66919       1.3642       2.0956    1427.66919       1.3645       2.0948
   1427.65393       1.3493       2.0261    1427.65393       1.3496       2.0254
   1427.63867       1.2554       1.8689    1427.63867       1.2557       1.8682
   1427.62341       1.2603       2.0582    1427.62341       1.2605       2.0574
   1427.60815       1.5367       1.8611    1427.60815       1.5370       1.8604
   1427.59290       1.3221       1.7715    1427.59290       1.3223       1.7708
   1427.57764       1.4429       1.8862    1427.57764       1.4432       1.8855
   1427.56238       1.5625       1.9080    1427.56238       1.5628       1.9072
   1427.54712       1.4483       1.8559    1427.54712       1.4486       1.8552
   1427.53186       1.2750       2.1191    1427.53186       1.2753       2.1183
   1427.51660       1.2999       1.8546    1427.51660       1.3001       1.8539
   1427.50134       1.1251       1.6530    1427.50134       1.1253       1.6524
   1427.48608       1.6791       1.8998    1427.48608       1.6794       1.8991
   1427.47083       1.4646       1.6103    1427.47083       1.4649       1.6096
   1427.45557       1.5867       1.5303    1427.45557       1.5870       1.5297
   1427.44031       1.3536       1.9283    1427.44031       1.3538       1.9275
   1427.42505       1.4976       1.9742    1427.42505       1.4979       1.9735
   1427.40979       1.4618       2.0480    1427.40979       1.4621       2.0472
   1427.39453       1.5662       1.7909    1427.39453       1.5665       1.7902
   1427.37927       1.3585       1.7441    1427.37927       1.3588       1.7435
   1427.36401       1.3852       1.7353    1427.36401       1.3855       1.7346
   1427.34875       1.6479       2.1541    1427.34875       1.6482       2.1532
   1427.33350       1.4063       1.5684    1427.33350       1.4066       1.5678
   1427.31824       1.6493       1.4933    1427.31824       1.6496       1.4927
   1427.30298       1.4808       2.0482    1427.30298       1.4811       2.0474
   1427.28772       1.7468       1.9552    1427.28772       1.7471       1.9545
   1427.27246       1.4620       1.9589    1427.27246       1.4623       1.9581
   1427.25720       1.6189       1.7857    1427.25720       1.6192       1.7850
   1427.24194       1.4356       1.7475    1427.24194       1.4359       1.7468
   1427.22668       1.4439       1.5314    1427.22668       1.4442       1.5308
   1427.21143       1.5393       1.8445    1427.21143       1.5397       1.8437
   1427.19617       1.5214       1.5985    1427.19617       1.5217       1.5979
   1427.18091       1.4371       1.7425    1427.18091       1.4374       1.7419
   1427.16565       1.5176       1.5879    1427.16565       1.5179       1.5873
   1427.15039       1.5822       2.0012    1427.15039       1.5825       2.0005
   1427.13513       1.3806       1.9823    1427.13513       1.3808       1.9816
   1427.11987       1.6817       1.8628    1427.11987       1.6820       1.8621
   1427.10461       1.5671       1.5638    1427.10461       1.5674       1.5632
   1427.08936       1.5900       1.7945    1427.08936       1.5903       1.7938
   1427.07410       1.5100       1.6509    1427.07410       1.5103       1.6502
   1427.05884       1.4570       1.8459    1427.05884       1.4573       1.8451
   1427.04358       1.4405       1.9182    1427.04358       1.4408       1.9174
   1427.02832       1.4178       1.9664    1427.02832       1.4181       1.9656
   1427.01306       1.5386       1.6042    1427.01306       1.5389       1.6035
   1426.99780       1.5078       1.6952    1426.99780       1.5081       1.6946
   1426.98254       1.6522       1.7637    1426.98254       1.6525       1.7630
   1426.96729       1.3068       1.6419    1426.96729       1.3071       1.6413
   1426.95203       1.6915       1.7046    1426.95203       1.6918       1.7039
   1426.93677       1.4605       1.7682    1426.93677       1.4608       1.7675
   1426.92151       1.5319       1.9283    1426.92151       1.5322       1.9275
   1426.90625       1.6773       2.2358    1426.90625       1.6776       2.2349
   1426.89099       1.5407       1.7530    1426.89099       1.5410       1.7523
   1426.87573       1.4724       2.0683    1426.87573       1.4727       2.0675
   1426.86047       1.5660       1.7076    1426.86047       1.5663       1.7069
   1426.84521       1.5022       1.8263    1426.84521       1.5025       1.8256
   1426.82996       1.7485       1.9222    1426.82996       1.7488       1.9214
   1426.81470       1.6590       1.7801    1426.81470       1.6594       1.7794
   1426.79944       1.7757       1.9044    1426.79944       1.7760       1.9037
   1426.78418       1.3841       1.6441    1426.78418       1.3844       1.6435
   1426.76892       1.5708       1.9204    1426.76892       1.5711       1.9196
   1426.75366       1.4091       1.7903    1426.75366       1.4094       1.7896
   1426.73840       1.4334       1.7247    1426.73840       1.4337       1.7240
   1426.72314       1.7879       1.9703    1426.72314       1.7883       1.9695
   1426.70789       1.6455       1.9893    1426.70789       1.6458       1.9885
   1426.69263       1.4765       1.9989    1426.69263       1.4768       1.9982
   1426.67737       1.6890       1.8579    1426.67737       1.6893       1.8571
   1426.66211       1.7193       1.8486    1426.66211       1.7197       1.8479
   1426.64685       1.5198       1.8945    1426.64685       1.5201       1.8937
   1426.63159       1.5309       1.8582    1426.63159       1.5312       1.8575
   1426.61633       1.5778       1.9176    1426.61633       1.5781       1.9169
   1426.60107       1.6926       1.7017    1426.60107       1.6929       1.7011
   1426.58582       1.7765       1.8506    1426.58582       1.7768       1.8499
   1426.57056       1.6821       1.8239    1426.57056       1.6825       1.8232
   1426.55530       1.8168       1.6251    1426.55530       1.8171       1.6245
   1426.54004       1.6039       1.7896    1426.54004       1.6043       1.7889
   1426.52478       1.5935       1.8630    1426.52478       1.5938       1.8623
   1426.50952       1.6347       1.4419    1426.50952       1.6350       1.4413
   1426.49426       1.8203       1.6174    1426.49426       1.8207       1.6168
   1426.47900       1.7393       1.8603    1426.47900       1.7396       1.8596
   1426.46375       1.6194       1.7567    1426.46375       1.6197       1.7561
   1426.44849       1.9196       1.7655    1426.44849       1.9200       1.7648
   1426.43323       1.7970       1.7903    1426.43323       1.7973       1.7896
   1426.41797       1.7440       1.5461    1426.41797       1.7444       1.5455
   1426.40271       1.6573       2.1570    1426.40271       1.6576       2.1561
   1426.38745       1.8054       1.9898    1426.38745       1.8058       1.9890
   1426.37219       1.5753       1.8150    1426.37219       1.5756       1.8143
   1426.35693       1.5736       2.0249    1426.35693       1.5739       2.0241
   1426.34167       1.7418       1.7695    1426.34167       1.7421       1.7688
   1426.32642       1.5843       1.9609    1426.32642       1.5846       1.9602
   1426.31116       1.5196       1.5520    1426.31116       1.5199       1.5514
   1426.29590       1.6009       1.8416    1426.29590       1.6012       1.8409
   1426.28064       1.5530       1.9953    1426.28064       1.5534       1.9945
   1426.26538       1.7460       1.8707    1426.26538       1.7463       1.8699
   1426.25012       1.5325       1.9200    1426.25012       1.5328       1.9193
   1426.23486       1.8383       1.7823    1426.23486       1.8386       1.7816
   1426.21960       1.4888       1.7887    1426.21960       1.4891       1.7880
   1426.20435       1.5511       1.9438    1426.20435       1.5515       1.9431
   1426.18909       1.5791       2.0441    1426.18909       1.5794       2.0433
   1426.17383       1.4360       2.0168    1426.17383       1.4362       2.0161
   1426.15857       1.5880       1.6479    1426.15857       1.5883       1.6473
   1426.14331       1.7815       1.6667    1426.14331       1.7818       1.6660
   1426.12805       1.6077       1.9000    1426.12805       1.6080       1.8992
   1426.11279       1.4509       1.6321    1426.11279       1.4512       1.6315
   1426.09753       1.5016       1.9939    1426.09753       1.5019       1.9931
   1426.08228       1.7590       1.6250    1426.08228       1.7593       1.6244
   1426.06702       1.6583       1.7633    1426.06702       1.6586       1.7626
   1426.05176       1.5232       1.6836    1426.05176       1.5235       1.6829
   1426.03650       1.5869       1.8343    1426.03650       1.5872       1.8336
   1426.02124       1.6101       1.8111    1426.02124       1.6104       1.8104
   1426.00598       1.5997       2.0305    1426.00598       1.6001       2.0297
   1425.99072       1.8414       1.9465    1425.99072       1.8417       1.9457
   1425.97546       1.7967       1.7403    1425.97546       1.7971       1.7396
   1425.96021       1.5468       1.8114    1425.96021       1.5472       1.8106
   1425.94495       1.4065       1.5491    1425.94495       1.4067       1.5485
   1425.92969       1.4368       1.6645    1425.92969       1.4371       1.6639
   1425.91443       1.4045       1.6778    1425.91443       1.4048       1.6771
   1425.89917       1.8379       1.4019    1425.89917       1.8382       1.4014
   1425.88391       1.4287       2.0794    1425.88391       1.4289       2.0786
   1425.86865       1.5274       1.8839    1425.86865       1.5277       1.8832
   1425.85339       1.5986       1.5449    1425.85339       1.5990       1.5443
   1425.83813       1.5726       1.2241    1425.83813       1.5729       1.2236
   1425.82288       1.4848       1.5321    1425.82288       1.4851       1.5315
   1425.80762       1.6831       1.9647    1425.80762       1.6834       1.9639
   1425.79236       1.5977       1.8655    1425.79236       1.5980       1.8648
   1425.77710       1.7819       1.7578    1425.77710       1.7823       1.7571
   1425.76184       1.7385       1.7046    1425.76184       1.7388       1.7039
   1425.74658       1.4489       1.5172    1425.74658       1.4492       1.5166
   1425.73132       1.9417       1.3583    1425.73132       1.9421       1.3578
   1425.71606       1.5809       1.4618    1425.71606       1.5812       1.4612
   1425.70081       1.7365       1.7943    1425.70081       1.7368       1.7936
   1425.68555       1.8629       1.7866    1425.68555       1.8633       1.7859
   1425.67029       1.8142       1.9375    1425.67029       1.8145       1.9367
   1425.65503       1.6498       2.0976    1425.65503       1.6501       2.0968
   1425.63977       1.6062       1.8789    1425.63977       1.6065       1.8781
   1425.62451       1.3667       1.7369    1425.62451       1.3669       1.7362
   1425.60925       1.5185       1.8591    1425.60925       1.5188       1.8584
   1425.59399       1.7550       1.5819    1425.59399       1.7553       1.5813
   1425.57874       1.4008       1.3270    1425.57874       1.4011       1.3265
   1425.56348       1.5790       1.9581    1425.56348       1.5793       1.9573
   1425.54822       1.5605       1.9306    1425.54822       1.5608       1.9299
   1425.53296       1.8097       1.8191    1425.53296       1.8101       1.8184
   1425.51770       1.7356       1.6233    1425.51770       1.7360       1.6226
   1425.50244       1.7177       1.9168    1425.50244       1.7181       1.9160
   1425.48718       1.7339       1.6926    1425.48718       1.7342       1.6920
   1425.47192       1.7845       1.6071    1425.47192       1.7849       1.6065
   1425.45667       1.5691       1.7933    1425.45667       1.5694       1.7926
   1425.44141       1.5840       1.8615    1425.44141       1.5843       1.8608
   1425.42615       1.4532       1.6466    1425.42615       1.4535       1.6460
   1425.41089       1.5998       1.4667    1425.41089       1.6001       1.4662
   1425.39563       1.3980       1.5659    1425.39563       1.3983       1.5653
   1425.38037       1.6039       1.6688    1425.38037       1.6042       1.6681
   1425.36511       1.5877       1.4928    1425.36511       1.5880       1.4923
   1425.34985       1.7062       1.7222    1425.34985       1.7066       1.7215
   1425.33459       1.3447       1.6869    1425.33459       1.3449       1.6862
   1425.31934       1.4358       1.7237    1425.31934       1.4361       1.7231
   1425.30408       1.7603       1.6864    1425.30408       1.7607       1.6858
   1425.28882       1.4012       1.6477    1425.28882       1.4015       1.6470
   1425.27356       1.6386       1.4553    1425.27356       1.6390       1.4547
   1425.25830       1.5033       1.6097    1425.25830       1.5036       1.6091
   1425.24304       1.5139       1.6037    1425.24304       1.5142       1.6031
   1425.22778       1.6018       1.7629    1425.22778       1.6021       1.7622
   1425.21252       1.6051       1.6801    1425.21252       1.6054       1.6794
   1425.19727       1.5471       1.5691    1425.19727       1.5474       1.5685
   1425.18201       1.5827       1.6209    1425.18201       1.5830       1.6202
   1425.16675       1.5044       1.6141    1425.16675       1.5047       1.6135
   1425.15149       1.5520       1.6686    1425.15149       1.5524       1.6680
   1425.13623       1.5011       1.7495    1425.13623       1.5014       1.7488
   1425.12097       1.6417       1.8222    1425.12097       1.6420       1.8215
   1425.10571       1.7307       1.6373    1425.10571       1.7310       1.6366
   1425.09045       1.6758       1.6780    1425.09045       1.6762       1.6773
   1425.07520       1.4963       1.4564    1425.07520       1.4966       1.4558
   1425.05994       1.4329       1.7169    1425.05994       1.4332       1.7163
   1425.04468       1.6772       1.6433    1425.04468       1.6775       1.6426
   1425.02942       1.4282       1.7023    1425.02942       1.4285       1.7016
   1425.01416       1.4730       1.4590    1425.01416       1.4733       1.4584
   1424.99890       1.5445       1.3461    1424.99890       1.5448       1.3456
   1424.98364       1.6717       1.7062    1424.98364       1.6721       1.7055
   1424.96838       1.5169       1.9727    1424.96838       1.5172       1.9719
   1424.95312       1.6495       1.9016    1424.95312       1.6499       1.9009
   1424.93787       1.5757       1.6885    1424.93787       1.5760       1.6878
   1424.92261       1.2900       1.8430    1424.92261       1.2902       1.8423
   1424.90735       1.6558       1.9183    1424.90735       1.6561       1.9175
   1424.89209       1.2756       1.9823    1424.89209       1.2759       1.9815
   1424.87683       1.4748       1.8391    1424.87683       1.4751       1.8383
   1424.86157       1.4898       1.2515    1424.86157       1.4901       1.2510
   1424.84631       1.6092       1.7047    1424.84631       1.6095       1.7040
   1424.83105       1.7587       1.5747    1424.83105       1.7591       1.5741
   1424.81580       1.5025       1.5147    1424.81580       1.5028       1.5141
   1424.80054       1.6690       1.4971    1424.80054       1.6693       1.4966
   1424.78528       1.6401       1.4190    1424.78528       1.6405       1.4184
   1424.77002       1.5209       1.5822    1424.77002       1.5212       1.5816
   1424.75476       1.4779       1.4645    1424.75476       1.4782       1.4639
   1424.73950       1.4333       1.7369    1424.73950       1.4335       1.7362
   1424.72424       1.3292       1.7984    1424.72424       1.3295       1.7977
   1424.70898       1.4475       1.7929    1424.70898       1.4478       1.7922
   1424.69373       1.3814       1.9017    1424.69373       1.3817       1.9010
   1424.67847       1.5363       1.7554    1424.67847       1.5367       1.7547
   1424.66321       1.4445       1.7169    1424.66321       1.4448       1.7163
   1424.64795       1.4833       1.9756    1424.64795       1.4836       1.9748
   1424.63269       1.4168       1.6494    1424.63269       1.4170       1.6488
   1424.61743       1.2386       1.6654    1424.61743       1.2388       1.6647
   1424.60217       1.2790       1.8722    1424.60217       1.2793       1.8715
   1424.58691       1.4735       1.6707    1424.58691       1.4737       1.6700
   1424.57166       1.2747       1.5358    1424.57166       1.2750       1.5352
   1424.55640       1.5818       1.6765    1424.55640       1.5822       1.6758
   1424.54114       1.2955       1.6421    1424.54114       1.2957       1.6415
   1424.52588       1.5086       1.8971    1424.52588       1.5089       1.8963
   1424.51062       1.4692       1.5085    1424.51062       1.4695       1.5079
   1424.49536       1.4477       1.7278    1424.49536       1.4480       1.7271
   1424.48010       1.4451       1.7491    1424.48010       1.4454       1.7484
   1424.46484       1.4888       1.6708    1424.46484       1.4891       1.6701
   1424.44958       1.4999       1.4703    1424.44958       1.5002       1.4698
   1424.43433       1.4157       1.6313    1424.43433       1.4160       1.6306
   1424.41907       1.3879       1.5055    1424.41907       1.3882       1.5049
   1424.40381       1.4570       1.6651    1424.40381       1.4573       1.6644
   1424.38855       1.4614       1.6556    1424.38855       1.4617       1.6550
   1424.37329       1.4967       1.4149    1424.37329       1.4970       1.4143
   1424.35803       1.2751       1.7842    1424.35803       1.2754       1.7835
   1424.34277       1.2566       1.4608    1424.34277       1.2568       1.4602
   1424.32751       1.4792       1.6110    1424.32751       1.4795       1.6104
   1424.31226       1.3745       1.3319    1424.31226       1.3747       1.3313
   1424.29700       1.4068       1.6508    1424.29700       1.4071       1.6501
   1424.28174       1.4860       1.9967    1424.28174       1.4863       1.9959
   1424.26648       1.3028       1.5748    1424.26648       1.3030       1.5742
   1424.25122       1.4075       1.6549    1424.25122       1.4078       1.6543
   1424.23596       1.4579       1.5579    1424.23596       1.4582       1.5573
   1424.22070       1.2152       1.6266    1424.22070       1.2154       1.6260
   1424.20544       1.2978       1.6398    1424.20544       1.2980       1.6392
   1424.19019       1.4334       1.6088    1424.19019       1.4337       1.6082
   1424.17493       1.4097       1.6374    1424.17493       1.4100       1.6368
   1424.15967       1.2484       1.7834    1424.15967       1.2486       1.7828
   1424.14441       1.1463       1.5531    1424.14441       1.1465       1.5525
   1424.12915       1.4560       1.9154    1424.12915       1.4563       1.9147
   1424.11389       1.3043       1.5533    1424.11389       1.3046       1.5527
   1424.09863       1.2975       1.6288    1424.09863       1.2978       1.6282
   1424.08337       1.2716       1.6979    1424.08337       1.2718       1.6972
   1424.06812       1.2547       1.6368    1424.06812       1.2549       1.6362
   1424.05286       1.0992       1.7536    1424.05286       1.0994       1.7529
   1424.03760       1.4348       1.8481    1424.03760       1.4351       1.8474
   1424.02234       1.1679       1.8130    1424.02234       1.1681       1.8123
   1424.00708       1.3103       1.5929    1424.00708       1.3106       1.5923
   1423.99182       1.2832       1.6260    1423.99182       1.2835       1.6254
   1423.97656       1.1256       1.7192    1423.97656       1.1258       1.7185
   1423.96130       1.2063       1.7393    1423.96130       1.2065       1.7386
   1423.94604       1.1287       1.5717    1423.94604       1.1289       1.5711
   1423.93079       1.3042       1.6806    1423.93079       1.3045       1.6799
   1423.91553       1.0743       1.4931    1423.91553       1.0745       1.4925
   1423.90027       1.1139       1.9869    1423.90027       1.1142       1.9861
   1423.88501       1.1833       1.8617    1423.88501       1.1836       1.8609
   1423.86975       1.3100       1.3860    1423.86975       1.3102       1.3855
   1423.85449       1.1460       1.4509    1423.85449       1.1463       1.4503
   1423.83923       1.2878       1.5072    1423.83923       1.2881       1.5066
   1423.82397       1.2260       1.3360    1423.82397       1.2263       1.3355
   1423.80872       1.2645       1.8180    1423.80872       1.2648       1.8172
   1423.79346       1.1890       1.5370    1423.79346       1.1892       1.5364
   1423.77820       1.4070       1.4954    1423.77820       1.4073       1.4948
   1423.76294       1.5634       1.7707    1423.76294       1.5637       1.7700
   1423.74768       1.1683       1.6095    1423.74768       1.1685       1.6089
   1423.73242       1.2651       1.7469    1423.73242       1.2654       1.7462
   1423.71716       0.7962       1.5719    1423.71716       0.7963       1.5713
   1423.70190       1.1058       1.5673    1423.70190       1.1060       1.5667
   1423.68665       1.2922       1.6104    1423.68665       1.2925       1.6098
   1423.67139       0.9419       1.5436    1423.67139       0.9421       1.5430
   1423.65613       1.0853       1.7579    1423.65613       1.0855       1.7572
   1423.64087       1.1267       1.2647    1423.64087       1.1269       1.2642
   1423.62561       1.1215       1.6271    1423.62561       1.1217       1.6264
   1423.61035       1.2810       1.7668    1423.61035       1.2813       1.7661
   1423.59509       1.1996       1.5461    1423.59509       1.1998       1.5455
   1423.57983       1.2020       1.3738    1423.57983       1.2023       1.3732
   1423.56458       1.1829       1.5238    1423.56458       1.1832       1.5232
   1423.54932       1.1039       1.5546    1423.54932       1.1041       1.5540
   1423.53406       1.0512       1.6940    1423.53406       1.0514       1.6933
   1423.51880       0.9738       1.8710    1423.51880       0.9740       1.8703
   1423.50354       1.1911       1.5566    1423.50354       1.1914       1.5560
   1423.48828       1.1306       1.3562    1423.48828       1.1308       1.3557
   1423.47302       1.2666       1.8195    1423.47302       1.2668       1.8188
   1423.45776       1.2611       1.8089    1423.45776       1.2614       1.8082
   1423.44250       0.9574       1.5709    1423.44250       0.9576       1.5703
   1423.42725       1.3068       1.3651    1423.42725       1.3071       1.3646
   1423.41199       1.1574       1.5315    1423.41199       1.1576       1.5309
   1423.39673       1.0530       1.5307    1423.39673       1.0532       1.5301
   1423.38147       1.0652       1.5971    1423.38147       1.0654       1.5964
   1423.36621       1.1524       1.7472    1423.36621       1.1526       1.7465
   1423.35095       0.8189       1.3277    1423.35095       0.8191       1.3272
   1423.33569       0.9288       1.7311    1423.33569       0.9290       1.7304
   1423.32043       1.0600       1.4838    1423.32043       1.0603       1.4833
   1423.30518       1.0989       1.5902    1423.30518       1.0991       1.5896
   1423.28992       1.0464       1.7056    1423.28992       1.0466       1.7049
   1423.27466       1.2956       1.7730    1423.27466       1.2959       1.7723
   1423.25940       1.0427       1.3383    1423.25940       1.0429       1.3378
   1423.24414       1.1796       1.7746    1423.24414       1.1799       1.7739
   1423.22888       1.0900       1.5393    1423.22888       1.0903       1.5387
   1423.21362       0.9455       1.7014    1423.21362       0.9457       1.7008
   1423.19836       1.1797       1.7185    1423.19836       1.1799       1.7179
   1423.18311       1.2052       1.5629    1423.18311       1.2054       1.5623
   1423.16785       1.1322       1.7558    1423.16785       1.1324       1.7552
   1423.15259       0.9755       1.7530    1423.15259       0.9756       1.7523
   1423.13733       1.0995       1.5965    1423.13733       1.0997       1.5959
   1423.12207       0.8217       1.6050    1423.12207       0.8219       1.6044
   1423.10681       1.0823       1.9037    1423.10681       1.0825       1.9030
   1423.09155       1.0056       1.3676    1423.09155       1.0058       1.3671
   1423.07629       1.0312       1.9250    1423.07629       1.0314       1.9242
   1423.06104       1.0193       1.7961    1423.06104       1.0195       1.7954
   1423.04578       1.1608       1.7107    1423.04578       1.1611       1.7100
   1423.03052       1.0733       1.9730    1423.03052       1.0735       1.9722
   1423.01526       1.1835       3.4326    1423.01526       1.1837       3.4313
   1423.00000       1.4237       3.3135    1423.00000       1.4239       3.3122
   1422.98474       1.6658       3.0924    1422.98474       1.6661       3.0912
   1422.96948       1.0750       1.8045    1422.96948       1.0752       1.8038
   1422.95422       1.1581       2.0277    1422.95422       1.1584       2.0269
   1422.93896       1.3015       1.9997    1422.93896       1.3018       1.9989
   1422.92371       1.3485       2.0137    1422.92371       1.3488       2.0129
   1422.90845       1.3908       2.1657    1422.90845       1.3911       2.1649
   1422.89319       1.0905       1.7936    1422.89319       1.0908       1.7929
   1422.87793       1.1018       1.8705    1422.87793       1.1020       1.8698
   1422.86267       1.1660       1.7997    1422.86267       1.1663       1.7990
   1422.84741       0.8536       1.7090    1422.84741       0.8538       1.7084
   1422.83215       1.1244       1.7936    1422.83215       1.1246       1.7929
   1422.81689       1.0729       1.6657    1422.81689       1.0731       1.6651
   1422.80164       0.9672       1.9136    1422.80164       0.9674       1.9129
   1422.78638       0.8540       1.6370    1422.78638       0.8542       1.6363
   1422.77112       0.8971       1.6383    1422.77112       0.8973       1.6376
   1422.75586       0.7919       1.8417    1422.75586       0.7921       1.8410
   1422.74060       0.8527       1.6436    1422.74060       0.8528       1.6430
   1422.72534       0.9942       1.5805    1422.72534       0.9944       1.5799
   1422.71008       1.0422       1.5571    1422.71008       1.0424       1.5564
   1422.69482       0.7891       1.7946    1422.69482       0.7893       1.7939
   1422.67957       0.8615       1.7673    1422.67957       0.8617       1.7666
   1422.66431       0.9509       1.8312    1422.66431       0.9511       1.8305
   1422.64905       0.9140       1.7504    1422.64905       0.9142       1.7497
   1422.63379       1.0284       1.6811    1422.63379       1.0286       1.6804
   1422.61853       0.8354       1.7591    1422.61853       0.8355       1.7584
   1422.60327       1.1128       1.8336    1422.60327       1.1130       1.8329
   1422.58801       0.7241       1.8709    1422.58801       0.7242       1.8701
   1422.57275       0.8843       1.6019    1422.57275       0.8845       1.6013
   1422.55750       0.9977       1.6393    1422.55750       0.9979       1.6387
   1422.54224       0.8254       1.7213    1422.54224       0.8255       1.7206
   1422.52698       1.0971       1.6035    1422.52698       1.0973       1.6029
   1422.51172       0.7384       1.4165    1422.51172       0.7385       1.4160
   1422.49646       0.8585       1.7791    1422.49646       0.8587       1.7784
   1422.48120       0.9631       1.4063    1422.48120       0.9632       1.4058
   1422.46594       1.0724       1.6721    1422.46594       1.0727       1.6715
   1422.45068       0.7892       1.5616    1422.45068       0.7894       1.5610
   1422.43542       0.7759       1.6966    1422.43542       0.7760       1.6959
   1422.42017       0.6641       1.5959    1422.42017       0.6643       1.5953
   1422.40491       0.9946       1.8405    1422.40491       0.9948       1.8398
   1422.38965       0.7537       1.4650    1422.38965       0.7539       1.4645
   1422.37439       0.8411       1.8703    1422.37439       0.8413       1.8696
   1422.35913       0.7569       2.1571    1422.35913       0.7570       2.1563
   1422.34387       0.8225       1.8486    1422.34387       0.8227       1.8479
   1422.32861       0.7615       1.6946    1422.32861       0.7617       1.6939
   1422.31335       0.9573       1.5829    1422.31335       0.9575       1.5823
   1422.29810       0.6097       1.5942    1422.29810       0.6099       1.5936
   1422.28284       0.6208       1.6686    1422.28284       0.6209       1.6680
   1422.26758       0.7817       1.8113    1422.26758       0.7819       1.8106
   1422.25232       0.7032       1.8074    1422.25232       0.7033       1.8066
   1422.23706       0.7914       1.7551    1422.23706       0.7916       1.7544
   1422.22180       0.9068       1.8927    1422.22180       0.9070       1.8920
   1422.20654       1.0138       1.9354    1422.20654       1.0140       1.9346
   1422.19128       0.7224       1.7425    1422.19128       0.7226       1.7418
   1422.17603       0.8532       1.9596    1422.17603       0.8534       1.9588
   1422.16077       0.9793       1.8564    1422.16077       0.9795       1.8557
   1422.14551       0.9892       1.8922    1422.14551       0.9894       1.8914
   1422.13025       0.8970       1.7899    1422.13025       0.8972       1.7892
   1422.11499       1.0306       1.8636    1422.11499       1.0308       1.8628
   1422.09973       1.1991       1.7674    1422.09973       1.1993       1.7668
   1422.08447       1.0400       1.7129    1422.08447       1.0402       1.7123
   1422.06921       0.8423       1.9837    1422.06921       0.8425       1.9830
   1422.05396       0.8377       1.6475    1422.05396       0.8378       1.6469
   1422.03870       0.8834       1.6242    1422.03870       0.8836       1.6236
   1422.02344       0.8159       1.5677    1422.02344       0.8161       1.5671
   1422.00818       0.7165       1.8201    1422.00818       0.7167       1.8194
   1421.99292       0.6584       1.8197    1421.99292       0.6586       1.8190
   1421.97766       0.5977       1.8599    1421.97766       0.5978       1.8592
   1421.96240       0.6770       1.6914    1421.96240       0.6771       1.6908
   1421.94714       0.8081       1.6948    1421.94714       0.8083       1.6942
   1421.93188       0.6644       1.8012    1421.93188       0.6646       1.8005
   1421.91663       0.7633       1.4765    1421.91663       0.7634       1.4759
   1421.90137       0.7840       1.6832    1421.90137       0.7841       1.6826
   1421.88611       0.9300       1.7956    1421.88611       0.9302       1.7949
   1421.87085       0.8818       1.4399    1421.87085       0.8820       1.4393
   1421.85559       0.7531       1.6372    1421.85559       0.7533       1.6365
   1421.84033       0.6451       1.8795    1421.84033       0.6452       1.8788
   1421.82507       0.6726       1.9266    1421.82507       0.6727       1.9259
   1421.80981       0.8082       1.5479    1421.80981       0.8083       1.5473
   1421.79456       0.7496       1.7005    1421.79456       0.7497       1.6999
   1421.77930       0.6233       1.5380    1421.77930       0.6234       1.5374
   1421.76404       0.8845       1.8992    1421.76404       0.8847       1.8985
   1421.74878       0.6683       1.6549    1421.74878       0.6685       1.6542
   1421.73352       0.8268       1.7015    1421.73352       0.8270       1.7008
   1421.71826       0.8055       1.8849    1421.71826       0.8057       1.8841
   1421.70300       0.7207       1.5791    1421.70300       0.7209       1.5784
   1421.68774       0.7015       1.9183    1421.68774       0.7016       1.9175
   1421.67249       0.9304       1.8794    1421.67249       0.9306       1.8787
   1421.65723       0.7862       1.6877    1421.65723       0.7864       1.6870
   1421.64197       0.9332       1.6796    1421.64197       0.9334       1.6790
   1421.62671       0.8818       1.5882    1421.62671       0.8820       1.5876
   1421.61145       0.8470       1.7131    1421.61145       0.8471       1.7125
   1421.59619       0.6710       1.5829    1421.59619       0.6711       1.5823
   1421.58093       0.8601       1.7523    1421.58093       0.8603       1.7516
   1421.56567       0.6670       1.7249    1421.56567       0.6671       1.7243
   1421.55042       0.8681       1.7629    1421.55042       0.8683       1.7622
   1421.53516       0.8303       1.4235    1421.53516       0.8305       1.4230
   1421.51990       0.7507       1.7270    1421.51990       0.7509       1.7263
   1421.50464       0.8919       1.7707    1421.50464       0.8921       1.7700
   1421.48938       0.6932       1.4608    1421.48938       0.6933       1.4602
   1421.47412       0.8178       1.5063    1421.47412       0.8180       1.5057
   1421.45886       0.6796       1.7086    1421.45886       0.6797       1.7080
   1421.44360       0.9310       1.8102    1421.44360       0.9312       1.8095
   1421.42834       0.5817       1.8349    1421.42834       0.5818       1.8342
   1421.41309       0.4436       1.7769    1421.41309       0.4437       1.7762
   1421.39783       0.8079       1.7810    1421.39783       0.8081       1.7803
   1421.38257       0.8259       1.6684    1421.38257       0.8260       1.6677
   1421.36731       0.6855       2.0776    1421.36731       0.6856       2.0768
   1421.35205       0.6857       1.7853    1421.35205       0.6858       1.7846
   1421.33679       0.5746       1.9024    1421.33679       0.5748       1.9017
   1421.32153       0.7324       1.8822    1421.32153       0.7326       1.8815
   1421.30627       0.7319       1.8522    1421.30627       0.7320       1.8515
   1421.29102       0.6278       1.5458    1421.29102       0.6279       1.5452
   1421.27576       0.6576       1.4826    1421.27576       0.6577       1.4820
   1421.26050       0.7088       1.7044    1421.26050       0.7090       1.7037
   1421.24524       0.8456       1.8528    1421.24524       0.8458       1.8521
   1421.22998       0.6466       1.4620    1421.22998       0.6467       1.4614
   1421.21472       0.5856       1.7847    1421.21472       0.5857       1.7840
   1421.19946       0.8613       1.7700    1421.19946       0.8615       1.7694
   1421.18420       0.7386       1.6759    1421.18420       0.7387       1.6752
   1421.16895       0.5505       1.6659    1421.16895       0.5506       1.6652
   1421.15369       0.6196       1.6819    1421.15369       0.6197       1.6813
   1421.13843       0.5808       1.9611    1421.13843       0.5810       1.9604
   1421.12317       0.4954       1.8169    1421.12317       0.4955       1.8162
   1421.10791       0.7792       1.5796    1421.10791       0.7794       1.5789
   1421.09265       0.4782       1.5130    1421.09265       0.4783       1.5124
   1421.07739       0.8312       1.9902    1421.07739       0.8314       1.9894
   1421.06213       1.0385       1.5832    1421.06213       1.0387       1.5826
   1421.04688       0.6084       1.8871    1421.04688       0.6086       1.8863
   1421.03162       0.7189       1.8757    1421.03162       0.7191       1.8750
   1421.01636       0.9572       1.9790    1421.01636       0.9574       1.9783
   1421.00110       0.7720       2.0308    1421.00110       0.7722       2.0300
   1420.98584       0.8127       1.5856    1420.98584       0.8129       1.5849
   1420.97058       0.8217       1.8174    1420.97058       0.8218       1.8167
   1420.95532       0.7290       1.5682    1420.95532       0.7292       1.5676
   1420.94006       0.8212       1.7201    1420.94006       0.8214       1.7194
   1420.92480       0.6373       2.0383    1420.92480       0.6374       2.0375
   1420.90955       0.6377       1.6378    1420.90955       0.6378       1.6372
   1420.89429       0.7702       2.0277    1420.89429       0.7703       2.0269
   1420.87903       0.8908       1.8477    1420.87903       0.8910       1.8470
   1420.86377       0.8021       1.8362    1420.86377       0.8022       1.8355
   1420.84851       0.6921       1.5141    1420.84851       0.6923       1.5135
   1420.83325       0.5219       2.0162    1420.83325       0.5220       2.0154
   1420.81799       1.0405       1.7087    1420.81799       1.0407       1.7080
   1420.80273       0.8571       1.8798    1420.80273       0.8573       1.8791
   1420.78748       0.6725       1.9473    1420.78748       0.6727       1.9465
   1420.77222       0.8331       1.9812    1420.77222       0.8333       1.9804
   1420.75696       1.2713       2.1596    1420.75696       1.2716       2.1587
   1420.74170       1.2593       2.1700    1420.74170       1.2596       2.1691
   1420.72644       1.1593       2.0594    1420.72644       1.1595       2.0586
   1420.71118       0.9628       2.2660    1420.71118       0.9630       2.2652
   1420.69592       0.6399       1.8653    1420.69592       0.6400       1.8646
   1420.68066       0.6018       1.6111    1420.68066       0.6019       1.6105
   1420.66541       0.0186       1.2815    1420.66541       0.0186       1.2810
   1420.65015      -0.2330       0.3975    1420.65015      -0.2330       0.3973
   1420.63489      -0.3652       0.3138    1420.63489      -0.3652       0.3137
   1420.61963      -0.4926       0.7401    1420.61963      -0.4927       0.7398
   1420.60437      -0.2494       0.8716    1420.60437      -0.2494       0.8713
   1420.58911      -0.1965       0.5004    1420.58911      -0.1965       0.5002
   1420.57385      -1.8619      -1.0368    1420.57385      -1.8623      -1.0364
   1420.55859      -1.8399      -1.2389    1420.55859      -1.8403      -1.2384
   1420.54333      -1.1331       0.1838    1420.54333      -1.1333       0.1837
   1420.52808      -2.0383      -1.9937    1420.52808      -2.0387      -1.9930
   1420.51282       2.0332       2.1877    1420.51282       2.0336       2.1868
   1420.49756       5.4078       6.2971    1420.49756       5.4089       6.2946
   1420.48230       0.8543       2.0384    1420.48230       0.8545       2.0376
   1420.46704       0.6005       1.8706    1420.46704       0.6006       1.8699
   1420.45178       0.8780       1.6450    1420.45178       0.8782       1.6444
   1420.43652       0.4489       1.7501    1420.43652       0.4490       1.7494
   1420.42126       0.5042       1.9385    1420.42126       0.5043       1.9377
   1420.40601       0.7817       1.4028    1420.40601       0.7819       1.4022
   1420.39075       0.6404       1.3004    1420.39075       0.6405       1.2999
   1420.37549       0.5108       1.4656    1420.37549       0.5109       1.4650
   1420.36023       0.7223       1.6544    1420.36023       0.7225       1.6538
   1420.34497       0.5296       1.8009    1420.34497       0.5297       1.8002
   1420.32971       0.6527       1.4582    1420.32971       0.6529       1.4577
   1420.31445       0.6686       1.6145    1420.31445       0.6687       1.6139
   1420.29919       0.7331       1.9638    1420.29919       0.7333       1.9631
   1420.28394       0.7388       1.6573    1420.28394       0.7390       1.6567
   1420.26868       0.6346       1.8842    1420.26868       0.6348       1.8834
   1420.25342       0.4355       1.9183    1420.25342       0.4356       1.9176
   1420.23816       0.7253       1.9786    1420.23816       0.7255       1.9778
   1420.22290       0.7350       1.7815    1420.22290       0.7352       1.7808
   1420.20764       0.5680       1.7204    1420.20764       0.5681       1.7197
   1420.19238       0.6829       1.7192    1420.19238       0.6830       1.7185
   1420.17712       0.9129       1.7716    1420.17712       0.9131       1.7709
   1420.16187       0.5357       1.6293    1420.16187       0.5358       1.6286
   1420.14661       0.9157       1.5988    1420.14661       0.9159       1.5982
   1420.13135       0.7323       1.5935    1420.13135       0.7325       1.5929
   1420.11609       0.8069       1.8018    1420.11609       0.8070       1.8011
   1420.10083       0.6976       1.7704    1420.10083       0.6977       1.7697
   1420.08557       0.7192       1.8331    1420.08557       0.7193       1.8324
   1420.07031       0.6896       1.8306    1420.07031       0.6897       1.8299
   1420.05505       0.6918       1.7765    1420.05505       0.6919       1.7758
   1420.03979       0.5652       1.8340    1420.03979       0.5653       1.8333
   1420.02454       0.6243       1.7781    1420.02454       0.6245       1.7775
   1420.00928       0.7249       1.7637    1420.00928       0.7250       1.7630
   1419.99402       0.8270       2.0801    1419.99402       0.8272       2.0793
   1419.97876       0.5899       1.7961    1419.97876       0.5900       1.7954
   1419.96350       0.7584       2.0820    1419.96350       0.7586       2.0812
   1419.94824       0.3817       1.6021    1419.94824       0.3817       1.6014
   1419.93298       0.5376       1.8667    1419.93298       0.5377       1.8660
   1419.91772       0.7117       2.1893    1419.91772       0.7118       2.1884
   1419.90247       0.6441       1.5033    1419.90247       0.6443       1.5027
   1419.88721       0.5198       2.1240    1419.88721       0.5199       2.1231
   1419.87195       0.5522       2.0773    1419.87195       0.5523       2.0765
   1419.85669       0.6925       1.4722    1419.85669       0.6927       1.4716
   1419.84143       0.8066       1.9174    1419.84143       0.8068       1.9167
   1419.82617       0.7094       1.5200    1419.82617       0.7095       1.5194
   1419.81091       0.6871       1.7187    1419.81091       0.6872       1.7180
   1419.79565       0.5863       1.9089    1419.79565       0.5864       1.9081
   1419.78040       0.6101       1.8671    1419.78040       0.6103       1.8664
   1419.76514       0.5474       1.6748    1419.76514       0.5475       1.6742
   1419.74988       0.7208       1.8029    1419.74988       0.7210       1.8022
   1419.73462       0.8164       1.9992    1419.73462       0.8166       1.9984
   1419.71936       0.7115       1.9429    1419.71936       0.7116       1.9421
   1419.70410       0.6866       1.7302    1419.70410       0.6868       1.7295
   1419.68884       0.7344       1.9077    1419.68884       0.7345       1.9070
   1419.67358       0.7794       1.9619    1419.67358       0.7795       1.9612
   1419.65833       0.6609       1.9017    1419.65833       0.6610       1.9010
   1419.64307       0.6805       1.7225    1419.64307       0.6807       1.7219
   1419.62781       0.7167       2.1135    1419.62781       0.7168       2.1126
   1419.61255       0.6136       1.9748    1419.61255       0.6137       1.9740
   1419.59729       0.5837       1.7751    1419.59729       0.5838       1.7744
   1419.58203       0.8405       1.6379    1419.58203       0.8407       1.6373
   1419.56677       0.6069       1.9002    1419.56677       0.6070       1.8995
   1419.55151       0.8299       1.8381    1419.55151       0.8301       1.8374
   1419.53625       0.6317       1.5870    1419.53625       0.6318       1.5863
   1419.52100       0.6065       1.6509    1419.52100       0.6066       1.6502
   1419.50574       0.6538       1.6099    1419.50574       0.6539       1.6093
   1419.49048       0.5893       1.9294    1419.49048       0.5894       1.9287
   1419.47522       0.6638       1.7252    1419.47522       0.6639       1.7245
   1419.45996       0.6527       1.6875    1419.45996       0.6528       1.6868
   1419.44470       0.5632       1.7439    1419.44470       0.5633       1.7433
   1419.42944       0.7465       1.5626    1419.42944       0.7466       1.5620
   1419.41418       0.7302       1.9504    1419.41418       0.7303       1.9497
   1419.39893       0.6202       1.5663    1419.39893       0.6203       1.5657
   1419.38367       0.8097       2.0036    1419.38367       0.8099       2.0028
   1419.36841       0.7171       1.9948    1419.36841       0.7172       1.9940
   1419.35315       0.8192       1.7496    1419.35315       0.8193       1.7490
   1419.33789       0.7167       1.8646    1419.33789       0.7168       1.8639
   1419.32263       0.6755       1.7610    1419.32263       0.6757       1.7603
   1419.30737       0.7892       1.8727    1419.30737       0.7893       1.8720
   1419.29211       0.5403       1.9236    1419.29211       0.5404       1.9228
   1419.27686       0.6451       1.6036    1419.27686       0.6452       1.6030
   1419.26160       0.7606       1.7320    1419.26160       0.7608       1.7313
   1419.24634       0.5897       1.8379    1419.24634       0.5898       1.8372
   1419.23108       0.5797       1.8581    1419.23108       0.5798       1.8574
   1419.21582       0.4367       1.9349    1419.21582       0.4368       1.9341
   1419.20056       0.4891       1.9968    1419.20056       0.4892       1.9960
   1419.18530       0.4846       2.1042    1419.18530       0.4847       2.1033
   1419.17004       0.8834       1.5098    1419.17004       0.8836       1.5092
   1419.15479       0.7298       1.8553    1419.15479       0.7299       1.8545
   1419.13953       0.4339       1.7536    1419.13953       0.4340       1.7529
   1419.12427       0.7989       1.9945    1419.12427       0.7991       1.9937
   1419.10901       0.8292       1.5719    1419.10901       0.8294       1.5713
   1419.09375       0.6729       1.7582    1419.09375       0.6731       1.7575
   1419.07849       0.4990       1.6159    1419.07849       0.4991       1.6153
   1419.06323       0.5505       1.7764    1419.06323       0.5506       1.7757
   1419.04797       0.5763       1.8144    1419.04797       0.5764       1.8136
   1419.03271       0.7418       1.4600    1419.03271       0.7419       1.4594
   1419.01746       0.6572       1.5414    1419.01746       0.6574       1.5408
   1419.00220       0.6706       1.9010    1419.00220       0.6708       1.9003
   1418.98694       0.6601       1.5159    1418.98694       0.6602       1.5153
   1418.97168       0.6353       1.6690    1418.97168       0.6354       1.6684
   1418.95642       0.7756       2.0336    1418.95642       0.7758       2.0328
   1418.94116       0.4479       2.0030    1418.94116       0.4480       2.0022
   1418.92590       0.6614       1.6450    1418.92590       0.6616       1.6444
   1418.91064       0.7977       1.5589    1418.91064       0.7978       1.5583
   1418.89539       0.8682       1.6658    1418.89539       0.8684       1.6652
   1418.88013       0.8969       1.7574    1418.88013       0.8971       1.7567
   1418.86487       0.7724       1.7278    1418.86487       0.7725       1.7272
   1418.84961       0.8135       1.8415    1418.84961       0.8137       1.8408
   1418.83435       0.8434       1.9791    1418.83435       0.8436       1.9783
   1418.81909       0.5557       1.6745    1418.81909       0.5558       1.6739
   1418.80383       0.7489       1.7618    1418.80383       0.7490       1.7611
   1418.78857       0.5930       1.7488    1418.78857       0.5931       1.7481
   1418.77332       0.7071       1.9879    1418.77332       0.7072       1.9871
   1418.75806       0.7202       1.8654    1418.75806       0.7204       1.8647
   1418.74280       0.7944       1.8261    1418.74280       0.7945       1.8254
   1418.72754       0.8609       1.8144    1418.72754       0.8611       1.8137
   1418.71228       0.7063       2.0213    1418.71228       0.7065       2.0205
   1418.69702       0.7677       1.8559    1418.69702       0.7678       1.8552
   1418.68176       0.7231       1.5581    1418.68176       0.7232       1.5575
   1418.66650       0.6617       1.6417    1418.66650       0.6618       1.6410
   1418.65125       0.8781       1.9967    1418.65125       0.8783       1.9959
   1418.63599       0.7608       1.7183    1418.63599       0.7610       1.7176
   1418.62073       0.7497       1.7619    1418.62073       0.7498       1.7612
   1418.60547       0.5841       1.9039    1418.60547       0.5842       1.9031
   1418.59021       0.9830       1.9929    1418.59021       0.9832       1.9921
   1418.57495       0.7771       1.9197    1418.57495       0.7772       1.9189
   1418.55969       0.8010       1.8089    1418.55969       0.8011       1.8082
   1418.54443       0.5407       1.7816    1418.54443       0.5408       1.7809
   1418.52917       0.7302       1.7610    1418.52917       0.7304       1.7603
   1418.51392       0.7479       1.7599    1418.51392       0.7480       1.7592
   1418.49866       0.8225       2.2476    1418.49866       0.8227       2.2468
   1418.48340       0.8807       2.0316    1418.48340       0.8808       2.0308
   1418.46814       0.9242       1.8969    1418.46814       0.9244       1.8961
   1418.45288       0.7362       1.7801    1418.45288       0.7363       1.7794
   1418.43762       0.7435       1.6183    1418.43762       0.7436       1.6177
   1418.42236       0.7723       1.6783    1418.42236       0.7725       1.6777
   1418.40710       1.0409       1.9376    1418.40710       1.0411       1.9368
   1418.39185       0.8592       1.8468    1418.39185       0.8594       1.8461
   1418.37659       0.8714       2.2453    1418.37659       0.8715       2.2444
   1418.36133       0.8865       1.5234    1418.36133       0.8866       1.5228
   1418.34607       0.8575       1.7808    1418.34607       0.8577       1.7801
   1418.33081       0.7326       1.6461    1418.33081       0.7328       1.6455
   1418.31555       0.8517       1.7245    1418.31555       0.8518       1.7238
   1418.30029       0.7716       1.9442    1418.30029       0.7718       1.9434
   1418.28503       0.9336       2.0523    1418.28503       0.9338       2.0515
   1418.26978       0.7789       1.9726    1418.26978       0.7790       1.9718
   1418.25452       0.8540       1.7608    1418.25452       0.8542       1.7601
   1418.23926       0.8061       1.8633    1418.23926       0.8063       1.8626
   1418.22400       0.8043       1.7859    1418.22400       0.8045       1.7852
   1418.20874       0.9079       1.8994    1418.20874       0.9081       1.8986
   1418.19348       0.7777       1.7206    1418.19348       0.7779       1.7200
   1418.17822       0.8521       1.6374    1418.17822       0.8523       1.6367
   1418.16296       0.7637       1.8847    1418.16296       0.7638       1.8839
   1418.14771       1.0555       1.8078    1418.14771       1.0557       1.8070
   1418.13245       1.0822       1.8128    1418.13245       1.0824       1.8121
   1418.11719       0.8460       1.9461    1418.11719       0.8462       1.9454
   1418.10193       1.0134       2.2537    1418.10193       1.0136       2.2529
   1418.08667       1.0064       1.9278    1418.08667       1.0066       1.9270
   1418.07141       1.1729       1.9582    1418.07141       1.1731       1.9575
   1418.05615       1.0035       1.8079    1418.05615       1.0037       1.8072
   1418.04089       0.9519       1.6635    1418.04089       0.9521       1.6629
   1418.02563       0.9438       1.8326    1418.02563       0.9440       1.8319
   1418.01038       0.6447       2.0484    1418.01038       0.6448       2.0476
   1417.99512       0.7932       1.8024    1417.99512       0.7933       1.8017
   1417.97986       0.7823       1.7182    1417.97986       0.7824       1.7176
   1417.96460       1.1184       2.0148    1417.96460       1.1186       2.0140
   1417.94934       0.7753       2.0956    1417.94934       0.7755       2.0948
   1417.93408       1.0032       1.6866    1417.93408       1.0034       1.6859
   1417.91882       0.9766       1.8951    1417.91882       0.9768       1.8943
   1417.90356       0.9072       1.8505    1417.90356       0.9073       1.8497
   1417.88831       0.9181       1.8288    1417.88831       0.9182       1.8280
   1417.87305       0.9241       1.6595    1417.87305       0.9243       1.6588
   1417.85779       1.0114       1.6675    1417.85779       1.0116       1.6668
   1417.84253       0.9653       1.7620    1417.84253       0.9655       1.7613
   1417.82727       0.7800       1.9251    1417.82727       0.7802       1.9244
   1417.81201       0.8200       1.7118    1417.81201       0.8202       1.7112
   1417.79675       1.0308       1.7900    1417.79675       1.0310       1.7893
   1417.78149       1.0259       1.7426    1417.78149       1.0262       1.7419
   1417.76624       0.9612       1.6556    1417.76624       0.9614       1.6550
   1417.75098       0.8851       1.9140    1417.75098       0.8853       1.9132
   1417.73572       0.9344       1.6692    1417.73572       0.9346       1.6686
   1417.72046       0.9179       1.7692    1417.72046       0.9180       1.7685
   1417.70520       0.9965       1.8100    1417.70520       0.9967       1.8093
   1417.68994       1.2729       1.7128    1417.68994       1.2732       1.7122
   1417.67468       0.9312       1.7834    1417.67468       0.9313       1.7827
   1417.65942       0.8753       1.9183    1417.65942       0.8755       1.9176
   1417.64417       1.3337       1.7898    1417.64417       1.3339       1.7891
   1417.62891       1.1750       1.8232    1417.62891       1.1752       1.8224
   1417.61365       0.9410       2.0632    1417.61365       0.9412       2.0624
   1417.59839       1.2856       1.6906    1417.59839       1.2858       1.6899
   1417.58313       1.1435       1.7126    1417.58313       1.1437       1.7119
   1417.56787       1.1444       2.0105    1417.56787       1.1447       2.0097
   1417.55261       1.0239       2.0700    1417.55261       1.0241       2.0692
   1417.53735       1.3345       2.1445    1417.53735       1.3348       2.1437
   1417.52209       1.0612       1.8419    1417.52209       1.0614       1.8412
   1417.50684       0.9091       1.7811    1417.50684       0.9093       1.7804
   1417.49158       0.9993       1.8063    1417.49158       0.9995       1.8056
   1417.47632       1.4402       1.7048    1417.47632       1.4405       1.7041
   1417.46106       0.9527       1.9000    1417.46106       0.9529       1.8992
   1417.44580       0.8776       1.4095    1417.44580       0.8778       1.4089
   1417.43054       0.9769       1.7381    1417.43054       0.9771       1.7374
   1417.41528       1.0245       1.6677    1417.41528       1.0247       1.6670
   1417.40002       1.0807       1.7341    1417.40002       1.0809       1.7334
   1417.38477       1.1398       1.9173    1417.38477       1.1400       1.9166
   1417.36951       1.2121       1.7784    1417.36951       1.2124       1.7777
   1417.35425       0.9637       1.8807    1417.35425       0.9639       1.8800
   1417.33899       1.3729       1.6535    1417.33899       1.3732       1.6528
   1417.32373       1.1456       1.8089    1417.32373       1.1458       1.8082
   1417.30847       1.2200       1.7054    1417.30847       1.2202       1.7047
   1417.29321       1.0343       1.8941    1417.29321       1.0345       1.8934
   1417.27795       1.2715       1.7580    1417.27795       1.2718       1.7573
   1417.26270       1.0915       1.5470    1417.26270       1.0917       1.5464
   1417.24744       1.0750       1.8830    1417.24744       1.0752       1.8823
   1417.23218       1.1098       1.9274    1417.23218       1.1100       1.9267
   1417.21692       1.1013       1.6314    1417.21692       1.1015       1.6308
   1417.20166       1.2004       1.6572    1417.20166       1.2006       1.6566
   1417.18640       1.1959       1.8063    1417.18640       1.1962       1.8056
   1417.17114       1.1082       2.0940    1417.17114       1.1085       2.0932
   1417.15588       1.1291       1.8051    1417.15588       1.1293       1.8044
   1417.14062       1.0601       1.5529    1417.14062       1.0603       1.5523
   1417.12537       1.0990       1.7984    1417.12537       1.0992       1.7977
   1417.11011       1.0613       1.7509    1417.11011       1.0615       1.7502
   1417.09485       1.3462       1.6931    1417.09485       1.3465       1.6924
   1417.07959       1.0990       1.7676    1417.07959       1.0992       1.7669
   1417.06433       1.1338       1.9107    1417.06433       1.1340       1.9100
   1417.04907       1.0006       1.6186    1417.04907       1.0008       1.6180
   1417.03381       1.0606       1.9918    1417.03381       1.0609       1.9910
   1417.01855       1.3972       1.8878    1417.01855       1.3975       1.8871
   1417.00330       1.2585       1.4838    1417.00330       1.2588       1.4832
   1416.98804       1.3761       1.5896    1416.98804       1.3763       1.5890
   1416.97278       1.2736       1.9415    1416.97278       1.2738       1.9408
   1416.95752       1.1508       1.9700    1416.95752       1.1510       1.9692
   1416.94226       1.1304       1.9038    1416.94226       1.1306       1.9030
   1416.92700       1.3961       1.8262    1416.92700       1.3964       1.8255
   1416.91174       1.4295       1.8684    1416.91174       1.4298       1.8676
   1416.89648       1.4389       1.7612    1416.89648       1.4392       1.7606
   1416.88123       1.6162       2.0818    1416.88123       1.6165       2.0810
   1416.86597       1.5429       2.1756    1416.86597       1.5432       2.1748
   1416.85071       1.0873       2.0085    1416.85071       1.0875       2.0077
   1416.83545       1.0490       1.7651    1416.83545       1.0492       1.7644
   1416.82019       1.3423       1.7344    1416.82019       1.3426       1.7337
   1416.80493       1.4746       1.5713    1416.80493       1.4749       1.5707
   1416.78967       1.3011       1.4526    1416.78967       1.3014       1.4520
   1416.77441       1.2879       1.8267    1416.77441       1.2881       1.8260
   1416.75916       1.2512       1.6218    1416.75916       1.2515       1.6212
   1416.74390       1.2880       1.6208    1416.74390       1.2882       1.6202
   1416.72864       1.2655       1.8553    1416.72864       1.2657       1.8546
   1416.71338       1.3002       1.7306    1416.71338       1.3005       1.7299
   1416.69812       1.3207       1.4815    1416.69812       1.3209       1.4809
   1416.68286       1.3477       1.3826    1416.68286       1.3479       1.3821
   1416.66760       1.4052       1.7493    1416.66760       1.4055       1.7487
   1416.65234       1.4364       1.9991    1416.65234       1.4366       1.9983
   1416.63708       1.4036       1.5854    1416.63708       1.4039       1.5848
   1416.62183       1.3189       1.7115    1416.62183       1.3192       1.7109
   1416.60657       1.4073       1.6005    1416.60657       1.4075       1.5999
   1416.59131       1.1842       1.5062    1416.59131       1.1844       1.5056
   1416.57605       1.1384       1.7262    1416.57605       1.1386       1.7256
   1416.56079       1.5495       1.8840    1416.56079       1.5498       1.8832
   1416.54553       1.5203       1.7487    1416.54553       1.5206       1.7481
   1416.53027       1.4088       1.9871    1416.53027       1.4090       1.9863
   1416.51501       1.4402       1.4834    1416.51501       1.4405       1.4828
   1416.49976       1.3544       1.3629    1416.49976       1.3547       1.3624
   1416.48450       1.5190       1.8263    1416.48450       1.5193       1.8256
   1416.46924       1.4992       1.8056    1416.46924       1.4995       1.8049
   1416.45398       1.6621       1.7152    1416.45398       1.6624       1.7145
   1416.43872       1.5254       1.5761    1416.43872       1.5257       1.5755
   1416.42346       1.2253       1.9027    1416.42346       1.2256       1.9019
   1416.40820       1.3092       1.7765    1416.40820       1.3095       1.7758
   1416.39294       1.5488       1.5963    1416.39294       1.5491       1.5956
   1416.37769       1.7603       1.4202    1416.37769       1.7606       1.4196
   1416.36243       1.4516       1.7287    1416.36243       1.4519       1.7281
   1416.34717       1.6416       1.6748    1416.34717       1.6420       1.6742
   1416.33191       1.4998       1.4333    1416.33191       1.5001       1.4327
   1416.31665       1.3374       1.8687    1416.31665       1.3377       1.8680
   1416.30139       1.4820       1.8948    1416.30139       1.4823       1.8940
   1416.28613       1.3965       1.6940    1416.28613       1.3968       1.6933
   1416.27087       1.7380       1.7132    1416.27087       1.7383       1.7125
   1416.25562       1.5601       1.7538    1416.25562       1.5604       1.7531
   1416.24036       1.5416       1.4314    1416.24036       1.5419       1.4308
   1416.22510       1.6145       1.5018    1416.22510       1.6148       1.5013
   1416.20984       1.6439       1.7316    1416.20984       1.6442       1.7310
   1416.19458       1.5673       1.6511    1416.19458       1.5676       1.6505
   1416.17932       1.3392       1.7758    1416.17932       1.3395       1.7751
   1416.16406       1.4877       1.4097    1416.16406       1.4880       1.4092
   1416.14880       1.4909       1.8410    1416.14880       1.4912       1.8403
   1416.13354       1.5177       1.7893    1416.13354       1.5180       1.7886
   1416.11829       1.3818       1.6911    1416.11829       1.3821       1.6904
   1416.10303       1.7712       1.9564    1416.10303       1.7716       1.9556
   1416.08777       1.3910       1.5404    1416.08777       1.3913       1.5398
   1416.07251       1.3565       1.8258    1416.07251       1.3568       1.8251
   1416.05725       1.4511       1.4949    1416.05725       1.4514       1.4943
   1416.04199       1.6240       1.7167    1416.04199       1.6243       1.7160
   1416.02673       1.7421       1.9211    1416.02673       1.7424       1.9203
   1416.01147       1.7666       1.7671    1416.01147       1.7670       1.7664
   1415.99622       1.4399       1.5147    1415.99622       1.4402       1.5141
