#     FILENAME=Skynet_59332_ASTR_344_M31_EmmyWisz_59470_8391.A.onoff.cal.txt
#     BASENAME=Skynet_59332_ASTR_344_M31_EmmyWisz_59470_8391
#      CONTROL=SKYNET
#     PROJCODE=Skynet_59332_ASTR_344_M31_EmmyWisz_59470
#     DATAROOT=/raid/scratch/cyborg/SkynetData
#      DATADIR=/raid/scratch/cyborg
#     DATADIR2=/raid/scratch/cyborg/SkynetData/Skynet_59332_ASTR_344_M31_EmmyW
#     SCANNAME=2019_06_26_10
#     SRC_NAME=ASTR_344_M31_EmmyWisz
#     OBSERVER=haverford2_26746
#     DATE_OBS=2021-04-28T13:20:44.010
#        OBSID=59470
#      SCANNUM=8391
#          MJD=59332.5560649
#          UTC=48044
#     SCANTYPE=onoff
#     DATAMODE=HIRES
#     RECEIVER=Rx1_2
#      OBSFREQ=1395.0000
# Actual_FREQ1=1421.8800,
# Actual_FREQ2=1390.6300
#    LO1Tuning=6856.2600
#     RFFILTER=1355_1435
#        OBSBW=-15.6250
#     EFFBANDW=15.6250
#        NCHAN=1024
#    STARTCHAN=51
#     STOPCHAN=972
#         TINT=0.9999
#         TBIN=0.00419430
#       ACCLEN=2048 
#     DURATION=444.00
#     EXPOSURE=402.98
#        FOCUS=37.093
#       RA,DEC=00:43:04.11, 41:16:07.18
#      RA(deg)=12.68046
#     DEC(deg)=41.26874
#   WIDTH(deg)=3.0152x0.0054
#    AZIM(deg)=71.9972
#    ELEV(deg)=63.1035
#     COORDREF=RA_DEC_
#         HREF=10.6846
#         VREF=41.2687
#      RADESYS=FK5
#       OFFSYS=RADEC
#      EQUINOX=2000.00
#     IFATTENS=20.00, 13.00
#   BALANCELEV=1.200 
#   POWER_XLYR=[1.28, 1.24] 
#       VELDEF=RADI-OBS 
#     VELOCITY=0.000 
#         NPOL=2 
#      POLMODE=Linear 
#      POLTYPE=XXYY 
#      WARNING=None 
#     NOISECAL=HI 
#       PRECAL=5 
#      POSTCAL=5 
#     CRYOTEMP=15 
#      BOXTEMP=24 
#         TSYS=XX1:29.53, YY1:38.88
#         TSYS=XX2:32.67, YY2:34.44
#         TCAL=XX1:9.17, YY1:10.07
#         TCAL=XX2:9.14, YY2:9.87
# Calibrated spectra: Tsys*(ON-OFF)/OFF 
#                
#                
#Freq1(MHz)         XX1          YY1   Freq2(MHz)       XX2         YY2 
   1428.91430       0.7013       0.3341    1397.66430       0.7403       0.3526
   1428.89904       0.6987       0.3225    1397.64904       0.7023       0.4111
   1428.88378       0.7189       0.3422    1397.63378       0.7035       0.3644
   1428.86853       0.7195       0.3301    1397.61853       0.7042       0.4047
   1428.85327       0.7189       0.3246    1397.60327       0.7765       0.3775
   1428.83801       0.7074       0.3406    1397.58801       0.7067       0.4140
   1428.82275       0.6753       0.3169    1397.57275       0.7237       0.4217
   1428.80749       0.7184       0.3006    1397.55749       0.6937       0.4216
   1428.79223       0.7188       0.3045    1397.54223       0.7878       0.4138
   1428.77697       0.6612       0.3019    1397.52697       0.7016       0.3868
   1428.76171       0.6535       0.3341    1397.51171       0.7343       0.4437
   1428.74646       0.6650       0.4179    1397.49646       0.7355       0.4195
   1428.73120       0.7408       0.3719    1397.48120       0.6869       0.4312
   1428.71594       0.6932       0.3337    1397.46594       0.6646       0.4292
   1428.70068       0.7098       0.3208    1397.45068       0.7127       0.4204
   1428.68542       0.7055       0.3443    1397.43542       0.7071       0.4303
   1428.67016       0.6735       0.2791    1397.42016       0.7194       0.4416
   1428.65490       0.6786       0.3270    1397.40490       0.7416       0.3857
   1428.63964       0.6641       0.2860    1397.38964       0.7114       0.4413
   1428.62438       0.6612       0.3304    1397.37438       0.7138       0.4761
   1428.60913       0.6876       0.3157    1397.35913       0.7378       0.4354
   1428.59387       0.6702       0.3002    1397.34387       0.7054       0.4986
   1428.57861       0.6672       0.3076    1397.32861       0.6927       0.4530
   1428.56335       0.6921       0.3060    1397.31335       0.7220       0.4581
   1428.54809       0.7045       0.3392    1397.29809       0.6715       0.4915
   1428.53283       0.6098       0.3425    1397.28283       0.7223       0.4661
   1428.51757       0.6459       0.2794    1397.26757       0.7120       0.4556
   1428.50231       0.6426       0.3173    1397.25231       0.6880       0.4570
   1428.48706       0.6896       0.2959    1397.23706       0.6846       0.4857
   1428.47180       0.6311       0.2751    1397.22180       0.7052       0.4714
   1428.45654       0.6823       0.3082    1397.20654       0.7361       0.4469
   1428.44128       0.6313       0.3256    1397.19128       0.7062       0.4630
   1428.42602       0.6473       0.2864    1397.17602       0.7327       0.5073
   1428.41076       0.6357       0.3098    1397.16076       0.7371       0.5460
   1428.39550       0.6381       0.3283    1397.14550       0.7272       0.4665
   1428.38024       0.6446       0.2984    1397.13024       0.6857       0.4813
   1428.36499       0.6570       0.3282    1397.11499       0.6772       0.4947
   1428.34973       0.6350       0.3502    1397.09973       0.6854       0.4552
   1428.33447       0.6260       0.3834    1397.08447       0.7397       0.5367
   1428.31921       0.6511       0.3306    1397.06921       0.7678       0.5247
   1428.30395       0.6594       0.2841    1397.05395       0.7127       0.5288
   1428.28869       0.6474       0.2830    1397.03869       0.7264       0.5139
   1428.27343       0.6689       0.3352    1397.02343       0.7251       0.4923
   1428.25817       0.6724       0.2796    1397.00817       0.7052       0.5510
   1428.24292       0.6742       0.3547    1396.99292       0.7391       0.5149
   1428.22766       0.6197       0.2739    1396.97766       0.7080       0.4989
   1428.21240       0.6265       0.3606    1396.96240       0.6931       0.5369
   1428.19714       0.6141       0.2767    1396.94714       0.6864       0.4916
   1428.18188       0.6536       0.4027    1396.93188       0.7124       0.5035
   1428.16662       0.5978       0.3180    1396.91662       0.7011       0.5142
   1428.15136       0.5923       0.2842    1396.90136       0.6981       0.5136
   1428.13610       0.6235       0.3268    1396.88610       0.7214       0.5058
   1428.12084       0.6252       0.3337    1396.87084       0.7321       0.5829
   1428.10559       0.5886       0.3402    1396.85559       0.6941       0.5270
   1428.09033       0.5944       0.3317    1396.84033       0.6839       0.5561
   1428.07507       0.6480       0.3150    1396.82507       0.7218       0.5186
   1428.05981       0.5670       0.3081    1396.80981       0.7390       0.5332
   1428.04455       0.5982       0.3527    1396.79455       0.6681       0.5269
   1428.02929       0.6646       0.3290    1396.77929       0.7277       0.5553
   1428.01403       0.5883       0.2794    1396.76403       0.7205       0.5130
   1427.99877       0.5996       0.3509    1396.74877       0.6915       0.5555
   1427.98352       0.6016       0.3445    1396.73352       0.7136       0.5620
   1427.96826       0.5959       0.3381    1396.71826       0.7008       0.5827
   1427.95300       0.6393       0.3035    1396.70300       0.6830       0.5601
   1427.93774       0.5975       0.3413    1396.68774       0.7199       0.5566
   1427.92248       0.5751       0.3079    1396.67248       0.7289       0.5469
   1427.90722       0.6075       0.2893    1396.65722       0.6835       0.5625
   1427.89196       0.5928       0.3110    1396.64196       0.6645       0.5655
   1427.87670       0.5281       0.2864    1396.62670       0.7110       0.6136
   1427.86145       0.5906       0.3162    1396.61145       0.7770       0.5402
   1427.84619       0.5833       0.3295    1396.59619       0.6776       0.5431
   1427.83093       0.5549       0.3188    1396.58093       0.6914       0.6214
   1427.81567       0.5662       0.3214    1396.56567       0.6939       0.5783
   1427.80041       0.5672       0.3871    1396.55041       0.7028       0.5641
   1427.78515       0.5595       0.4308    1396.53515       0.6641       0.5522
   1427.76989       0.5410       0.3870    1396.51989       0.7879       0.5662
   1427.75463       0.5442       0.3140    1396.50463       0.6781       0.5710
   1427.73937       0.5785       0.2959    1396.48937       0.6925       0.5675
   1427.72412       0.5995       0.3976    1396.47412       0.6650       0.5916
   1427.70886       0.5844       0.3263    1396.45886       0.6556       0.6469
   1427.69360       0.5673       0.3999    1396.44360       0.6702       0.6118
   1427.67834       0.5676       0.3468    1396.42834       0.7437       0.5639
   1427.66308       0.5887       0.3285    1396.41308       0.6529       0.5979
   1427.64782       0.5266       0.3345    1396.39782       0.6663       0.5803
   1427.63256       0.5819       0.3080    1396.38256       0.6612       0.5286
   1427.61730       0.5638       0.4016    1396.36730       0.6941       0.5673
   1427.60205       0.5862       0.3560    1396.35205       0.6740       0.5871
   1427.58679       0.5360       0.3243    1396.33679       0.7096       0.6004
   1427.57153       0.5480       0.3289    1396.32153       0.6947       0.6198
   1427.55627       0.5609       0.3508    1396.30627       0.6852       0.6208
   1427.54101       0.5915       0.3367    1396.29101       0.6820       0.5892
   1427.52575       0.5507       0.3629    1396.27575       0.6662       0.6207
   1427.51049       0.5662       0.3722    1396.26049       0.6607       0.5451
   1427.49523       0.5167       0.3354    1396.24523       0.6646       0.5755
   1427.47998       0.5422       0.3513    1396.22998       0.6987       0.5805
   1427.46472       0.5038       0.4049    1396.21472       0.6952       0.5708
   1427.44946       0.5632       0.3515    1396.19946       0.6834       0.5893
   1427.43420       0.5090       0.3766    1396.18420       0.6945       0.5374
   1427.41894       0.5310       0.3574    1396.16894       0.6941       0.6524
   1427.40368       0.5365       0.3780    1396.15368       0.7013       0.5930
   1427.38842       0.5324       0.3623    1396.13842       0.6612       0.5782
   1427.37316       0.5312       0.4151    1396.12316       0.6187       0.5912
   1427.35791       0.5268       0.3623    1396.10791       0.5990       0.5709
   1427.34265       0.5212       0.3746    1396.09265       0.6506       0.5893
   1427.32739       0.5182       0.3692    1396.07739       0.6703       0.5958
   1427.31213       0.4937       0.3237    1396.06213       0.6710       0.5932
   1427.29687       0.5121       0.3898    1396.04687       0.6530       0.5756
   1427.28161       0.4941       0.4000    1396.03161       0.6621       0.6213
   1427.26635       0.5181       0.3776    1396.01635       0.6412       0.5651
   1427.25109       0.5221       0.3884    1396.00109       0.6646       0.6405
   1427.23583       0.4719       0.3773    1395.98583       0.6729       0.5914
   1427.22058       0.5185       0.3634    1395.97058       0.6599       0.6294
   1427.20532       0.4811       0.3435    1395.95532       0.6792       0.5573
   1427.19006       0.5222       0.3695    1395.94006       0.6801       0.5748
   1427.17480       0.5311       0.3644    1395.92480       0.6680       0.5743
   1427.15954       0.4796       0.3839    1395.90954       0.6669       0.5927
   1427.14428       0.5497       0.3910    1395.89428       0.6383       0.5591
   1427.12902       0.4467       0.3658    1395.87902       0.6689       0.6156
   1427.11376       0.5460       0.3738    1395.86376       0.6654       0.6069
   1427.09851       0.4991       0.3597    1395.84851       0.6777       0.5396
   1427.08325       0.4416       0.3883    1395.83325       0.6467       0.5609
   1427.06799       0.4690       0.3994    1395.81799       0.6845       0.5807
   1427.05273       0.4738       0.3892    1395.80273       0.6680       0.5764
   1427.03747       0.4977       0.3607    1395.78747       0.6311       0.5500
   1427.02221       0.5119       0.3716    1395.77221       0.6272       0.5563
   1427.00695       0.4877       0.3026    1395.75695       0.6196       0.5411
   1426.99169       0.4846       0.3645    1395.74169       0.6500       0.5446
   1426.97644       0.4205       0.4268    1395.72644       0.6234       0.5535
   1426.96118       0.4681       0.3554    1395.71118       0.6462       0.6271
   1426.94592       0.4906       0.3791    1395.69592       0.6720       0.5624
   1426.93066       0.4553       0.3443    1395.68066       0.6273       0.5783
   1426.91540       0.4632       0.4158    1395.66540       0.6438       0.5463
   1426.90014       0.4665       0.4015    1395.65014       0.6637       0.5073
   1426.88488       0.4565       0.3749    1395.63488       0.6397       0.5738
   1426.86962       0.4772       0.3880    1395.61962       0.6425       0.5511
   1426.85437       0.4885       0.3860    1395.60437       0.6129       0.5164
   1426.83911       0.4769       0.3855    1395.58911       0.6446       0.4831
   1426.82385       0.4708       0.4496    1395.57385       0.6317       0.5517
   1426.80859       0.4415       0.4055    1395.55859       0.6702       0.5964
   1426.79333       0.4467       0.3671    1395.54333       0.6441       0.5999
   1426.77807       0.4422       0.3802    1395.52807       0.6176       0.5743
   1426.76281       0.4319       0.4113    1395.51281       0.6090       0.5144
   1426.74755       0.4248       0.4166    1395.49755       0.6251       0.5293
   1426.73229       0.4767       0.4467    1395.48229       0.6408       0.5397
   1426.71704       0.4876       0.3853    1395.46704       0.6284       0.5086
   1426.70178       0.4614       0.4024    1395.45178       0.6193       0.5385
   1426.68652       0.4549       0.3551    1395.43652       0.5875       0.4947
   1426.67126       0.3949       0.4320    1395.42126       0.6257       0.5065
   1426.65600       0.4559       0.4056    1395.40600       0.6797       0.4973
   1426.64074       0.4071       0.3300    1395.39074       0.5928       0.5721
   1426.62548       0.4281       0.3759    1395.37548       0.6175       0.4768
   1426.61022       0.5500       0.9972    1395.36022       0.6100       0.4671
   1426.59497       0.3917       0.3174    1395.34497       0.5883       0.4915
   1426.57971       0.3992       0.3478    1395.32971       0.6051       0.5156
   1426.56445       0.4402       0.2975    1395.31445       0.6198       0.4804
   1426.54919       0.4086       0.3853    1395.29919       0.5891       0.4828
   1426.53393       0.4751       0.3892    1395.28393       0.5777       0.4721
   1426.51867       0.4266       0.3828    1395.26867       0.5690       0.4888
   1426.50341       0.4668       0.4109    1395.25341       0.6428       0.5353
   1426.48815       0.4495       0.4090    1395.23815       0.6154       0.5047
   1426.47290       0.3864       0.4394    1395.22290       0.5725       0.4781
   1426.45764       0.4390       0.3948    1395.20764       0.5979       0.4375
   1426.44238       0.4629       0.4324    1395.19238       0.6013       0.4394
   1426.42712       0.4766       0.4210    1395.17712       0.6017       0.4131
   1426.41186       0.4028       0.4523    1395.16186       0.5919       0.4703
   1426.39660       0.4231       0.3744    1395.14660       0.6419       0.4554
   1426.38134       0.4193       0.4039    1395.13134       0.6332       0.4778
   1426.36608       0.4566       0.4989    1395.11608       0.5751       0.4709
   1426.35083       0.4989       0.4353    1395.10083       0.6372       0.4232
   1426.33557       0.3825       0.3789    1395.08557       0.6037       0.4810
   1426.32031       0.3769       0.3772    1395.07031       0.5764       0.4529
   1426.30505       0.3827       0.3745    1395.05505       0.6040       0.4351
   1426.28979       0.4068       0.4117    1395.03979       0.6310       0.4302
   1426.27453       0.4232       0.4370    1395.02453       0.5702       0.4477
   1426.25927       0.4380       0.3828    1395.00927       0.6307       0.4431
   1426.24401       0.4378       0.4338    1394.99401       0.6393       0.4281
   1426.22875       0.4265       0.4056    1394.97875       0.6126       0.4091
   1426.21350       0.4370       0.3836    1394.96350       0.6054       0.4428
   1426.19824       0.4047       0.3841    1394.94824       0.5999       0.3885
   1426.18298       0.4304       0.4391    1394.93298       0.5908       0.4907
   1426.16772       0.4215       0.4602    1394.91772       0.5871       0.4412
   1426.15246       0.4088       0.4081    1394.90246       0.6059       0.4074
   1426.13720       0.3797       0.4348    1394.88720       0.6110       0.4081
   1426.12194       0.4343       0.4095    1394.87194       0.6035       0.4072
   1426.10668       0.4002       0.4263    1394.85668       0.6107       0.4395
   1426.09143       0.3763       0.4607    1394.84143       0.6229       0.4355
   1426.07617       0.3793       0.3675    1394.82617       0.5893       0.3931
   1426.06091       0.4200       0.3791    1394.81091       0.5810       0.3706
   1426.04565       0.3811       0.4405    1394.79565       0.6212       0.4420
   1426.03039       0.4269       0.4298    1394.78039       0.6077       0.4099
   1426.01513       0.3590       0.4061    1394.76513       0.5740       0.4051
   1425.99987       0.4100       0.4545    1394.74987       0.5913       0.4226
   1425.98461       0.3826       0.4084    1394.73461       0.6255       0.3828
   1425.96936       0.4117       0.4168    1394.71936       0.6131       0.3669
   1425.95410       0.4304       0.3884    1394.70410       0.6005       0.3976
   1425.93884       0.3721       0.4377    1394.68884       0.6123       0.3918
   1425.92358       0.3679       0.4350    1394.67358       0.6515       0.4268
   1425.90832       0.4282       0.3840    1394.65832       0.5886       0.3899
   1425.89306       0.4049       0.3996    1394.64306       0.5874       0.3756
   1425.87780       0.3831       0.4015    1394.62780       0.6100       0.4084
   1425.86254       0.3780       0.4446    1394.61254       0.6151       0.3826
   1425.84729       0.4172       0.4483    1394.59729       0.5473       0.3514
   1425.83203       0.3648       0.4167    1394.58203       0.6031       0.3645
   1425.81677       0.3603       0.4251    1394.56677       0.6009       0.3993
   1425.80151       0.3882       0.4433    1394.55151       0.5666       0.3566
   1425.78625       0.4009       0.3660    1394.53625       0.6193       0.3874
   1425.77099       0.4353       0.4440    1394.52099       0.5761       0.3766
   1425.75573       0.3777       0.3976    1394.50573       0.5978       0.3389
   1425.74047       0.4102       0.4019    1394.49047       0.6196       0.3585
   1425.72521       0.3920       0.4608    1394.47521       0.5582       0.3522
   1425.70996       0.4118       0.4569    1394.45996       0.5376       0.3937
   1425.69470       0.4136       0.3913    1394.44470       0.5308       0.3498
   1425.67944       0.3904       0.4423    1394.42944       0.6125       0.3866
   1425.66418       0.4066       0.4091    1394.41418       0.5819       0.3774
   1425.64892       0.3912       0.4171    1394.39892       0.5730       0.3857
   1425.63366       0.4251       0.3970    1394.38366       0.6141       0.3414
   1425.61840       0.4204       0.4239    1394.36840       0.5614       0.3009
   1425.60314       0.3963       0.3836    1394.35314       0.5405       0.3474
   1425.58789       0.3684       0.3973    1394.33789       0.5338       0.3312
   1425.57263       0.3792       0.4014    1394.32263       0.5729       0.3247
   1425.55737       0.3973       0.4240    1394.30737       0.6257       0.3518
   1425.54211       0.4228       0.4263    1394.29211       0.5798       0.3965
   1425.52685       0.3645       0.4081    1394.27685       0.6257       0.3591
   1425.51159       0.4143       0.4334    1394.26159       0.5254       0.3651
   1425.49633       0.4164       0.4558    1394.24633       0.5798       0.3778
   1425.48107       0.4207       0.3874    1394.23107       0.5722       0.3031
   1425.46582       0.3635       0.3656    1394.21582       0.5699       0.3288
   1425.45056       0.3768       0.4390    1394.20056       0.5439       0.3869
   1425.43530       0.4156       0.3924    1394.18530       0.5986       0.3827
   1425.42004       0.3990       0.3987    1394.17004       0.5842       0.3189
   1425.40478       0.3903       0.4180    1394.15478       0.5764       0.3594
   1425.38952       0.4233       0.3657    1394.13952       0.5780       0.3561
   1425.37426       0.3903       0.3771    1394.12426       0.5656       0.3271
   1425.35900       0.4245       0.3831    1394.10900       0.5728       0.4186
   1425.34375       0.3854       0.3864    1394.09375       0.5716       0.3195
   1425.32849       0.4255       0.3923    1394.07849       0.5858       0.3354
   1425.31323       0.3885       0.3763    1394.06323       0.6139       0.3428
   1425.29797       0.4120       0.3791    1394.04797       0.6061       0.3400
   1425.28271       0.3960       0.3701    1394.03271       0.6103       0.3690
   1425.26745       0.4079       0.4282    1394.01745       0.5559       0.3927
   1425.25219       0.4019       0.3929    1394.00219       0.5698       0.3104
   1425.23693       0.4432       0.4124    1393.98693       0.5508       0.3464
   1425.22167       0.4191       0.3641    1393.97167       0.5798       0.3385
   1425.20642       0.4138       0.3217    1393.95642       0.6041       0.3293
   1425.19116       0.4136       0.3943    1393.94116       0.5749       0.3787
   1425.17590       0.3923       0.4004    1393.92590       0.5998       0.3384
   1425.16064       0.3730       0.4028    1393.91064       0.5905       0.3247
   1425.14538       0.3701       0.4142    1393.89538       0.6012       0.3447
   1425.13012       0.4016       0.3767    1393.88012       0.5904       0.3591
   1425.11486       0.4446       0.3872    1393.86486       0.5703       0.3755
   1425.09960       0.4338       0.4320    1393.84960       0.5716       0.3337
   1425.08435       0.4255       0.4037    1393.83435       0.5945       0.3023
   1425.06909       0.4148       0.3357    1393.81909       0.6170       0.3338
   1425.05383       0.4227       0.3735    1393.80383       0.5730       0.3099
   1425.03857       0.3999       0.4057    1393.78857       0.6282       0.3386
   1425.02331       0.4383       0.4162    1393.77331       0.6122       0.3375
   1425.00805       0.4162       0.3904    1393.75805       0.5649       0.3403
   1424.99279       0.4410       0.3754    1393.74279       0.5914       0.3690
   1424.97753       0.4006       0.3792    1393.72753       0.5865       0.3554
   1424.96228       0.4030       0.4690    1393.71228       0.5929       0.3809
   1424.94702       0.3875       0.4154    1393.69702       0.6069       0.3768
   1424.93176       0.4006       0.4001    1393.68176       0.5824       0.3869
   1424.91650       0.3946       0.4308    1393.66650       0.5625       0.3998
   1424.90124       0.4011       0.4353    1393.65124       0.6195       0.4274
   1424.88598       0.4062       0.3735    1393.63598       0.5691       0.3830
   1424.87072       0.4398       0.4326    1393.62072       0.5799       0.3534
   1424.85546       0.4233       0.4118    1393.60546       0.5978       0.4035
   1424.84021       0.3925       0.3886    1393.59021       0.6039       0.4263
   1424.82495       0.3920       0.3965    1393.57495       0.5889       0.3777
   1424.80969       0.3908       0.4576    1393.55969       0.6097       0.3736
   1424.79443       0.4195       0.4364    1393.54443       0.6036       0.4281
   1424.77917       0.4211       0.3247    1393.52917       0.6163       0.4132
   1424.76391       0.4029       0.3867    1393.51391       0.6366       0.4115
   1424.74865       0.3737       0.3989    1393.49865       0.6373       0.4032
   1424.73339       0.4126       0.3884    1393.48339       0.5824       0.4304
   1424.71813       0.4428       0.4225    1393.46813       0.6096       0.3795
   1424.70288       0.3921       0.3988    1393.45288       0.6168       0.4167
   1424.68762       0.3981       0.3865    1393.43762       0.6221       0.4134
   1424.67236       0.4052       0.4625    1393.42236       0.6134       0.3768
   1424.65710       0.4233       0.4614    1393.40710       0.6262       0.3773
   1424.64184       0.4165       0.4360    1393.39184       0.5894       0.4217
   1424.62658       0.4155       0.4456    1393.37658       0.6343       0.3708
   1424.61132       0.4041       0.3930    1393.36132       0.5776       0.3788
   1424.59606       0.3990       0.4100    1393.34606       0.6211       0.3657
   1424.58081       0.4035       0.4346    1393.33081       0.6052       0.4051
   1424.56555       0.4520       0.4471    1393.31555       0.6151       0.3972
   1424.55029       0.3883       0.4688    1393.30029       0.5898       0.4466
   1424.53503       0.4479       0.3618    1393.28503       0.5990       0.4581
   1424.51977       0.4012       0.3488    1393.26977       0.5822       0.4468
   1424.50451       0.4367       0.3807    1393.25451       0.5965       0.4172
   1424.48925       0.4232       0.4405    1393.23925       0.6331       0.4422
   1424.47399       0.4217       0.4193    1393.22399       0.6259       0.4572
   1424.45874       0.4107       0.3888    1393.20874       0.5780       0.3881
   1424.44348       0.4394       0.4339    1393.19348       0.6028       0.4631
   1424.42822       0.4410       0.4190    1393.17822       0.6546       0.4644
   1424.41296       0.4095       0.4553    1393.16296       0.6495       0.5100
   1424.39770       0.3976       0.4915    1393.14770       0.6264       0.4891
   1424.38244       0.4324       0.4310    1393.13244       0.6253       0.5105
   1424.36718       0.4399       0.4496    1393.11718       0.6264       0.4646
   1424.35192       0.4138       0.3898    1393.10192       0.6226       0.5108
   1424.33667       0.4138       0.4672    1393.08667       0.5792       0.4538
   1424.32141       0.4695       0.4836    1393.07141       0.6477       0.5103
   1424.30615       0.4576       0.4452    1393.05615       0.6602       0.4846
   1424.29089       0.4626       0.4200    1393.04089       0.6344       0.4956
   1424.27563       0.3958       0.4480    1393.02563       0.6680       0.5392
   1424.26037       0.4093       0.4461    1393.01037       0.6224       0.4700
   1424.24511       0.4353       0.3904    1392.99511       0.6458       0.5254
   1424.22985       0.4369       0.4184    1392.97985       0.6073       0.5234
   1424.21459       0.4289       0.4527    1392.96459       0.6425       0.5215
   1424.19934       0.4342       0.4378    1392.94934       0.6223       0.4887
   1424.18408       0.4573       0.4380    1392.93408       0.6600       0.5376
   1424.16882       0.3959       0.4352    1392.91882       0.6082       0.5625
   1424.15356       0.4108       0.4216    1392.90356       0.6093       0.5767
   1424.13830       0.4459       0.4040    1392.88830       0.5791       0.5775
   1424.12304       0.4504       0.4012    1392.87304       0.6273       0.5354
   1424.10778       0.4348       0.4383    1392.85778       0.6136       0.5230
   1424.09252       0.4522       0.4299    1392.84252       0.6501       0.5630
   1424.07727       0.4027       0.4237    1392.82727       0.6421       0.5754
   1424.06201       0.4142       0.4352    1392.81201       0.6450       0.5940
   1424.04675       0.4472       0.3990    1392.79675       0.6143       0.6310
   1424.03149       0.4314       0.4350    1392.78149       0.6464       0.6019
   1424.01623       0.4241       0.3911    1392.76623       0.6622       0.5510
   1424.00097       0.4375       0.3897    1392.75097       0.6472       0.5876
   1423.98571       0.4252       0.4478    1392.73571       0.6637       0.5995
   1423.97045       0.4621       0.4169    1392.72045       0.6548       0.6060
   1423.95520       0.4482       0.4594    1392.70520       0.6752       0.6063
   1423.93994       0.4760       0.4542    1392.68994       0.6676       0.6515
   1423.92468       0.4659       0.4152    1392.67468       0.6451       0.6274
   1423.90942       0.4416       0.4445    1392.65942       0.6611       0.6151
   1423.89416       0.4224       0.4096    1392.64416       0.6689       0.6698
   1423.87890       0.4533       0.4464    1392.62890       0.6630       0.6856
   1423.86364       0.4550       0.4620    1392.61364       0.6719       0.6699
   1423.84838       0.4914       0.4718    1392.59838       0.6514       0.6974
   1423.83312       0.4720       0.4005    1392.58312       0.6861       0.7246
   1423.81787       0.4448       0.5078    1392.56787       0.6753       0.6824
   1423.80261       0.4080       0.4047    1392.55261       0.6702       0.7285
   1423.78735       0.4644       0.3764    1392.53735       0.7008       0.6451
   1423.77209       0.4694       0.4703    1392.52209       0.6714       0.6743
   1423.75683       0.4308       0.4226    1392.50683       0.6980       0.7096
   1423.74157       0.4557       0.4656    1392.49157       0.6891       0.7036
   1423.72631       0.4103       0.3868    1392.47631       0.6880       0.7179
   1423.71105       0.4498       0.4490    1392.46105       0.6778       0.7371
   1423.69580       0.4308       0.4136    1392.44580       0.6608       0.7449
   1423.68054       0.4639       0.3730    1392.43054       0.7097       0.7525
   1423.66528       0.4840       0.4595    1392.41528       0.7052       0.7623
   1423.65002       0.4660       0.4034    1392.40002       0.6913       0.7553
   1423.63476       0.4888       0.4552    1392.38476       0.6678       0.7456
   1423.61950       0.4532       0.4461    1392.36950       0.6747       0.8081
   1423.60424       0.4979       0.4673    1392.35424       0.7323       0.7953
   1423.58898       0.4867       0.4776    1392.33898       0.7159       0.7792
   1423.57373       0.4757       0.4146    1392.32373       0.6919       0.7861
   1423.55847       0.4356       0.4641    1392.30847       0.6875       0.7951
   1423.54321       0.5152       0.4502    1392.29321       0.6915       0.8102
   1423.52795       0.4556       0.4439    1392.27795       0.6880       0.8204
   1423.51269       0.4407       0.4160    1392.26269       0.7165       0.7698
   1423.49743       0.4592       0.4205    1392.24743       0.6865       0.8136
   1423.48217       0.4558       0.4556    1392.23217       0.6834       0.8323
   1423.46691       0.4625       0.4798    1392.21691       0.6996       0.8558
   1423.45166       0.4531       0.4511    1392.20166       0.7039       0.8021
   1423.43640       0.5129       0.4242    1392.18640       0.7004       0.8482
   1423.42114       0.4760       0.4971    1392.17114       0.7311       0.8451
   1423.40588       0.4634       0.4694    1392.15588       0.7395       0.8646
   1423.39062       0.4439       0.4876    1392.14062       0.7071       0.8667
   1423.37536       0.4953       0.4371    1392.12536       0.7150       0.8288
   1423.36010       0.4914       0.4645    1392.11010       0.7277       0.8397
   1423.34484       0.4533       0.5102    1392.09484       0.7024       0.8697
   1423.32958       0.4838       0.4611    1392.07958       0.7177       0.9017
   1423.31433       0.4543       0.4637    1392.06433       0.7144       0.8909
   1423.29907       0.5102       0.4203    1392.04907       0.7010       0.8720
   1423.28381       0.5328       0.5247    1392.03381       0.7064       0.8559
   1423.26855       0.4856       0.4688    1392.01855       0.6940       0.8689
   1423.25329       0.4955       0.5139    1392.00329       0.7151       0.9147
   1423.23803       0.4777       0.4010    1391.98803       0.7323       0.9185
   1423.22277       0.5114       0.4705    1391.97277       0.7225       0.8988
   1423.20751       0.5348       0.5082    1391.95751       0.7592       0.9395
   1423.19226       0.5291       0.4773    1391.94226       0.7245       0.9394
   1423.17700       0.5074       0.4405    1391.92700       0.7513       0.9193
   1423.16174       0.5221       0.4930    1391.91174       0.7241       0.9322
   1423.14648       0.5363       0.5206    1391.89648       0.7428       0.9494
   1423.13122       0.5484       0.5180    1391.88122       0.6956       0.9680
   1423.11596       0.5631       0.5645    1391.86596       0.6994       0.9819
   1423.10070       0.5768       0.5715    1391.85070       0.7244       0.9758
   1423.08544       0.5980       0.5902    1391.83544       0.6953       0.9567
   1423.07019       0.6254       0.6205    1391.82019       0.7460       1.0140
   1423.05493       0.5690       0.5811    1391.80493       0.6998       1.0016
   1423.03967       0.6324       0.6194    1391.78967       0.7373       0.9479
   1423.02441       0.6520       0.6663    1391.77441       0.7479       0.9630
   1423.00915       0.6614       0.6932    1391.75915       0.7736       0.9410
   1422.99389       0.6818       0.7136    1391.74389       0.7514       1.0305
   1422.97863       0.6974       0.7627    1391.72863       0.7345       0.9929
   1422.96337       0.7150       0.7506    1391.71337       0.7735       1.0338
   1422.94812       0.7359       0.7606    1391.69812       0.7461       1.0284
   1422.93286       0.7053       0.7586    1391.68286       0.7764       1.0134
   1422.91760       0.7466       0.8115    1391.66760       0.7557       1.0031
   1422.90234       0.7924       0.8215    1391.65234       0.7239       1.0299
   1422.88708       0.7811       0.8344    1391.63708       0.7567       1.0648
   1422.87182       0.7877       0.8212    1391.62182       0.7746       1.1017
   1422.85656       0.7696       0.7770    1391.60656       0.7983       1.0962
   1422.84130       0.7807       0.8184    1391.59130       0.7719       1.0465
   1422.82604       0.7883       0.7898    1391.57604       0.7702       1.0990
   1422.81079       0.7666       0.8295    1391.56079       0.7635       1.0527
   1422.79553       0.7816       0.8175    1391.54553       0.7474       1.0496
   1422.78027       0.7926       0.7648    1391.53027       0.7313       1.0724
   1422.76501       0.7822       0.7853    1391.51501       0.7758       1.0702
   1422.74975       0.7643       0.8544    1391.49975       0.7463       1.0826
   1422.73449       0.7868       0.8479    1391.48449       0.7449       1.0456
   1422.71923       0.7981       0.8302    1391.46923       0.7363       1.0887
   1422.70397       0.8283       0.7698    1391.45397       0.7505       1.0560
   1422.68872       0.8179       0.8381    1391.43872       0.7381       1.0833
   1422.67346       0.8068       0.8695    1391.42346       0.7275       1.0727
   1422.65820       0.8159       0.8618    1391.40820       0.8310       1.0991
   1422.64294       0.8362       0.9505    1391.39294       0.7625       1.1593
   1422.62768       0.8509       0.9766    1391.37768       0.7683       1.0917
   1422.61242       0.8873       0.9819    1391.36242       0.7859       1.1179
   1422.59716       0.9058       1.0363    1391.34716       0.7785       1.0771
   1422.58190       0.9589       0.9916    1391.33190       0.7647       1.0844
   1422.56665       0.9497       1.1921    1391.31665       0.8086       1.0996
   1422.55139       0.9921       1.0956    1391.30139       0.8116       1.1218
   1422.53613       1.0207       1.0832    1391.28613       0.8105       1.1169
   1422.52087       1.0260       1.1441    1391.27087       0.8004       1.1382
   1422.50561       1.0700       1.1630    1391.25561       0.7598       1.1788
   1422.49035       1.0704       1.1820    1391.24035       0.7988       1.1118
   1422.47509       1.1158       1.2865    1391.22509       0.7960       1.1567
   1422.45983       1.1501       1.2858    1391.20983       0.7641       1.1597
   1422.44458       1.1843       1.3787    1391.19458       0.7886       1.1191
   1422.42932       1.1604       1.3886    1391.17932       0.7817       1.1514
   1422.41406       1.2206       1.4104    1391.16406       0.7868       1.1129
   1422.39880       1.3032       1.4856    1391.14880       0.8651       1.1386
   1422.38354       1.3149       1.5351    1391.13354       0.8049       1.1574
   1422.36828       1.4019       1.6059    1391.11828       0.8041       1.1570
   1422.35302       1.4317       1.6903    1391.10302       0.8469       1.1420
   1422.33776       1.4683       1.6946    1391.08776       0.8218       1.0741
   1422.32250       1.5109       1.7802    1391.07250       0.8140       1.1827
   1422.30725       1.5436       1.8692    1391.05725       0.8251       1.1469
   1422.29199       1.5990       1.9282    1391.04199       0.7597       1.1641
   1422.27673       1.6379       1.9621    1391.02673       0.7885       1.2160
   1422.26147       1.7007       2.0865    1391.01147       0.8095       1.1333
   1422.24621       1.7678       2.1295    1390.99621       0.8209       1.1426
   1422.23095       1.8366       2.2044    1390.98095       0.8300       1.1731
   1422.21569       1.8485       2.2584    1390.96569       0.8167       1.1330
   1422.20043       1.9280       2.3882    1390.95043       0.8528       1.1576
   1422.18518       1.9804       2.4170    1390.93518       0.8020       1.1269
   1422.16992       2.0636       2.5771    1390.91992       0.8197       1.1878
   1422.15466       2.1305       2.5483    1390.90466       0.7709       1.2334
   1422.13940       2.1555       2.6724    1390.88940       0.7897       1.1568
   1422.12414       2.1738       2.6958    1390.87414       0.8199       1.1667
   1422.10888       2.2094       2.7360    1390.85888       0.7910       1.1492
   1422.09362       2.2814       2.8441    1390.84362       0.8250       1.1745
   1422.07836       2.3742       3.0023    1390.82836       0.8056       1.2115
   1422.06311       2.5090       3.0634    1390.81311       0.7978       1.2141
   1422.04785       2.5598       3.2257    1390.79785       0.7804       1.1742
   1422.03259       2.5985       3.2847    1390.78259       0.8301       1.1902
   1422.01733       2.6241       3.3258    1390.76733       0.8470       1.1656
   1422.00207       2.7077       3.4591    1390.75207       0.8133       1.1859
   1421.98681       2.8285       3.5424    1390.73681       0.8342       1.2151
   1421.97155       2.8653       3.6061    1390.72155       0.8070       1.1807
   1421.95629       2.9252       3.7621    1390.70629       0.8559       1.1666
   1421.94104       2.9515       3.7426    1390.69104       0.8368       1.2198
   1421.92578       2.9603       3.7409    1390.67578       0.8184       1.1800
   1421.91052       2.9424       3.8045    1390.66052       0.8561       1.2144
   1421.89526       2.9230       3.7525    1390.64526       0.8508       1.1683
   1421.88000       2.9389       3.7308    1390.63000       0.8579       1.1603
   1421.86474       2.9529       3.7092    1390.61474       0.8692       1.1523
   1421.84948       2.9103       3.7566    1390.59948       0.8747       1.1804
   1421.83422       2.9262       3.6698    1390.58422       0.8521       1.1742
   1421.81896       2.8683       3.6952    1390.56896       0.8329       1.1623
   1421.80371       2.8186       3.6609    1390.55371       0.8405       1.1772
   1421.78845       2.8455       3.6013    1390.53845       0.8580       1.1643
   1421.77319       2.8625       3.6910    1390.52319       0.8560       1.1856
   1421.75793       2.8978       3.7274    1390.50793       0.8567       1.1583
   1421.74267       2.9223       3.7186    1390.49267       0.8933       1.1423
   1421.72741       2.9760       3.7355    1390.47741       0.8679       1.1576
   1421.71215       2.9452       3.6530    1390.46215       0.8628       1.1628
   1421.69689       2.9248       3.6548    1390.44689       0.8224       1.1275
   1421.68164       2.7893       3.5296    1390.43164       0.8522       1.1909
   1421.66638       2.7439       3.4086    1390.41638       0.8812       1.1469
   1421.65112       2.6528       3.3713    1390.40112       0.8620       1.1703
   1421.63586       2.6264       3.3034    1390.38586       0.8376       1.1899
   1421.62060       2.5518       3.1765    1390.37060       0.8441       1.1148
   1421.60534       2.4528       3.0516    1390.35534       0.8233       1.1973
   1421.59008       2.3236       2.8779    1390.34008       0.8435       1.1876
   1421.57482       2.2913       2.8314    1390.32482       0.8250       1.1307
   1421.55957       2.2159       2.6792    1390.30957       0.8611       1.1315
   1421.54431       2.1998       2.6554    1390.29431       0.8668       1.1369
   1421.52905       2.1251       2.5979    1390.27905       0.8408       1.1302
   1421.51379       2.0177       2.4121    1390.26379       0.8813       1.1061
   1421.49853       1.9469       2.3994    1390.24853       0.9026       1.1693
   1421.48327       1.8514       2.2550    1390.23327       0.8656       1.1399
   1421.46801       1.7749       2.1049    1390.21801       0.8640       1.1420
   1421.45275       1.7695       2.0940    1390.20275       0.8868       1.1625
   1421.43750       1.7415       2.0421    1390.18750       0.8381       1.1133
   1421.42224       1.7269       2.0075    1390.17224       0.8520       1.1372
   1421.40698       1.6548       1.9526    1390.15698       0.8405       1.1004
   1421.39172       1.5965       1.8958    1390.14172       0.8712       1.1270
   1421.37646       1.5656       1.8683    1390.12646       0.8606       1.1267
   1421.36120       1.5394       1.7346    1390.11120       0.8696       1.1612
   1421.34594       1.4839       1.7056    1390.09594       0.8707       1.1365
   1421.33068       1.4063       1.6254    1390.08068       0.8960       1.1441
   1421.31542       1.3582       1.5767    1390.06542       0.8820       1.1266
   1421.30017       1.3046       1.5036    1390.05017       0.8884       1.0775
   1421.28491       1.2702       1.4369    1390.03491       0.8942       1.1579
   1421.26965       1.2430       1.3956    1390.01965       0.8800       1.1248
   1421.25439       1.2347       1.3345    1390.00439       0.8480       1.0909
   1421.23913       1.1661       1.2876    1389.98913       0.8885       1.1135
   1421.22387       1.1340       1.3221    1389.97387       0.8692       1.0740
   1421.20861       1.1573       1.2270    1389.95861       0.9453       1.0711
   1421.19335       1.0892       1.1698    1389.94335       0.8885       1.1169
   1421.17810       1.0605       1.1691    1389.92810       0.8712       1.1158
   1421.16284       1.0533       1.1377    1389.91284       0.8620       1.0687
   1421.14758       1.0802       1.1034    1389.89758       0.8723       1.1318
   1421.13232       1.0387       1.1080    1389.88232       0.8343       1.1090
   1421.11706       1.0050       1.1090    1389.86706       0.9145       1.0996
   1421.10180       0.9842       1.0758    1389.85180       0.9080       1.0927
   1421.08654       0.9824       1.0908    1389.83654       0.8696       1.1107
   1421.07128       0.9880       1.0458    1389.82128       0.9001       1.0400
   1421.05603       1.0021       1.0968    1389.80603       0.8473       1.0573
   1421.04077       0.9801       1.0315    1389.79077       0.8790       1.1227
   1421.02551       0.9464       1.0236    1389.77551       0.8820       1.0974
   1421.01025       0.9700       0.9686    1389.76025       0.8973       1.0805
   1420.99499       0.9610       1.0054    1389.74499       0.8765       1.0550
   1420.97973       0.9471       1.0337    1389.72973       0.8772       1.0558
   1420.96447       0.9779       1.0102    1389.71447       0.9508       1.0609
   1420.94921       1.0163       1.0659    1389.69921       0.9207       1.0480
   1420.93396       1.0125       1.0723    1389.68396       0.8755       1.0825
   1420.91870       1.0222       1.1439    1389.66870       0.9177       1.0258
   1420.90344       1.0462       1.0809    1389.65344       0.8450       1.0259
   1420.88818       1.0304       1.1428    1389.63818       0.9006       1.0708
   1420.87292       1.0287       1.1280    1389.62292       0.8918       1.0788
   1420.85766       0.9728       1.0528    1389.60766       0.9018       0.9958
   1420.84240       0.9319       1.0148    1389.59240       0.9072       1.0381
   1420.82714       0.9717       1.0399    1389.57714       0.8521       1.0344
   1420.81188       0.9070       1.0191    1389.56188       0.9108       1.0345
   1420.79663       0.9569       0.9547    1389.54663       0.8777       1.0433
   1420.78137       0.9545       0.9468    1389.53137       0.8742       0.9894
   1420.76611       0.8812       0.8683    1389.51611       0.8666       0.9635
   1420.75085       0.6915       0.7375    1389.50085       0.8808       0.9513
   1420.73559       0.4461       0.2836    1389.48559       0.8606       0.9879
   1420.72033       0.2731       0.1011    1389.47033       0.9327       1.0182
   1420.70507       0.4903       0.4087    1389.45507       0.9523       0.9702
   1420.68981       0.7628       0.7574    1389.43981       0.8986       0.9550
   1420.67456       0.9907       1.1391    1389.42456       0.8422       1.0007
   1420.65930       1.3531       1.6203    1389.40930       0.9062       0.9898
   1420.64404       1.9661       2.3981    1389.39404       0.8966       0.9482
   1420.62878       2.2935       2.8945    1389.37878       0.9501       0.9439
   1420.61352       1.9558       2.5183    1389.36352       0.8530       0.9403
   1420.59826       1.8294       2.3550    1389.34826       0.8942       0.9600
   1420.58300       1.6751       1.9973    1389.33300       0.9115       0.9694
   1420.56774       1.7817       2.2210    1389.31774       0.9261       0.9110
   1420.55249       1.7116       2.1070    1389.30249       0.9054       0.9579
   1420.53723       0.9834       1.1914    1389.28723       0.9101       0.9150
   1420.52197       0.7893       0.8669    1389.27197       0.8976       0.9200
   1420.50671       0.8516       0.8448    1389.25671       0.8685       0.9203
   1420.49145       1.1995       1.4113    1389.24145       0.9107       0.9767
   1420.47619       1.8156       2.1835    1389.22619       0.8809       0.9331
   1420.46093       2.8523       3.6255    1389.21093       0.9055       0.9445
   1420.44567       4.9986       6.4551    1389.19567       0.8768       0.9309
   1420.43042       3.7603       4.7696    1389.18042       0.9009       0.9058
   1420.41516       0.0457      -0.1617    1389.16516       0.9632       0.9165
   1420.39990      -1.4164      -2.2528    1389.14990       0.9058       0.9093
   1420.38464      -0.2742      -0.6256    1389.13464       0.8702       0.9196
   1420.36938       0.2011       0.0566    1389.11938       0.8920       0.8629
   1420.35412       0.4387       0.2644    1389.10412       0.9233       0.9012
   1420.33886       0.5812       0.4712    1389.08886       0.9266       0.9069
   1420.32360       0.5835       0.4909    1389.07360       0.9053       0.8973
   1420.30834       0.6303       0.5872    1389.05834       0.8333       0.8832
   1420.29309       0.6698       0.5620    1389.04309       0.8894       0.8959
   1420.27783       0.6677       0.5917    1389.02783       0.9067       0.8759
   1420.26257       0.7113       0.6073    1389.01257       0.9269       0.8613
   1420.24731       0.6952       0.5614    1388.99731       0.9081       0.8453
   1420.23205       0.7111       0.6126    1388.98205       0.8774       0.8535
   1420.21679       0.7160       0.6500    1388.96679       0.9389       0.8233
   1420.20153       0.6993       0.6425    1388.95153       0.9015       0.8731
   1420.18627       0.7174       0.6710    1388.93627       0.9216       0.8081
   1420.17102       0.6956       0.6609    1388.92102       0.8977       0.8430
   1420.15576       0.7165       0.6943    1388.90576       0.8955       0.8333
   1420.14050       0.7354       0.6975    1388.89050       0.8877       0.8538
   1420.12524       0.7006       0.7056    1388.87524       0.9198       0.8192
   1420.10998       0.6893       0.6769    1388.85998       0.9333       0.8546
   1420.09472       0.7202       0.6761    1388.84472       0.9090       0.7983
   1420.07946       0.7124       0.6687    1388.82946       0.9131       0.8673
   1420.06420       0.7148       0.6534    1388.81420       0.8885       0.8089
   1420.04895       0.7070       0.6604    1388.79895       0.8925       0.8186
   1420.03369       0.7281       0.6542    1388.78369       0.9030       0.8260
   1420.01843       0.6960       0.6862    1388.76843       0.8947       0.7887
   1420.00317       0.7016       0.7021    1388.75317       0.8823       0.8054
   1419.98791       0.7141       0.6742    1388.73791       0.8752       0.8000
   1419.97265       0.7091       0.6736    1388.72265       0.8521       0.7996
   1419.95739       0.7247       0.6725    1388.70739       0.8775       0.7861
   1419.94213       0.7256       0.6752    1388.69213       0.9263       0.7895
   1419.92687       0.7062       0.6774    1388.67687       0.8869       0.7975
   1419.91162       0.7265       0.6349    1388.66162       0.9335       0.7487
   1419.89636       0.7525       0.6732    1388.64636       0.9527       0.7706
   1419.88110       0.7022       0.6929    1388.63110       0.8989       0.7849
   1419.86584       0.7243       0.7120    1388.61584       0.9391       0.7631
   1419.85058       0.7036       0.6847    1388.60058       0.8946       0.7592
   1419.83532       0.7281       0.6838    1388.58532       0.8687       0.6992
   1419.82006       0.7262       0.6780    1388.57006       0.9194       0.7087
   1419.80480       0.6905       0.7177    1388.55480       0.9297       0.7401
   1419.78955       0.7319       0.6474    1388.53955       0.8788       0.7696
   1419.77429       0.6862       0.6923    1388.52429       0.8838       0.7067
   1419.75903       0.7384       0.7182    1388.50903       0.8687       0.7569
   1419.74377       0.7037       0.7155    1388.49377       0.9141       0.7651
   1419.72851       0.7337       0.7073    1388.47851       0.9311       0.7168
   1419.71325       0.7239       0.6931    1388.46325       0.9163       0.7364
   1419.69799       0.7042       0.6998    1388.44799       0.8914       0.7512
   1419.68273       0.7363       0.6958    1388.43273       0.9103       0.7371
   1419.66748       0.7635       0.6691    1388.41748       0.9280       0.6995
   1419.65222       0.7533       0.7022    1388.40222       0.9209       0.7006
   1419.63696       0.7606       0.7017    1388.38696       0.9218       0.7497
   1419.62170       0.7095       0.7155    1388.37170       0.8473       0.7409
   1419.60644       0.7113       0.6894    1388.35644       0.8711       0.7046
   1419.59118       0.7158       0.6737    1388.34118       0.9265       0.7307
   1419.57592       0.7346       0.6861    1388.32592       0.9047       0.7146
   1419.56066       0.7222       0.7170    1388.31066       0.8571       0.6837
   1419.54541       0.7151       0.6718    1388.29541       0.8240       0.6771
   1419.53015       0.7758       0.7307    1388.28015       0.9085       0.6640
   1419.51489       0.7046       0.7198    1388.26489       0.8464       0.6968
   1419.49963       0.7540       0.6927    1388.24963       0.8621       0.6798
   1419.48437       0.7440       0.7196    1388.23437       0.8471       0.6502
   1419.46911       0.7382       0.7201    1388.21911       0.9016       0.6757
   1419.45385       0.7706       0.7452    1388.20385       0.8731       0.6614
   1419.43859       0.6919       0.7202    1388.18859       0.8778       0.6724
   1419.42333       0.7124       0.7149    1388.17333       0.9224       0.6769
   1419.40808       0.7593       0.6873    1388.15808       0.8630       0.6193
   1419.39282       0.7359       0.7297    1388.14282       0.9343       0.6811
   1419.37756       0.7304       0.7024    1388.12756       0.9149       0.6653
   1419.36230       0.7501       0.7886    1388.11230       0.9010       0.6434
   1419.34704       0.7376       0.7355    1388.09704       0.8502       0.6292
   1419.33178       0.7527       0.7577    1388.08178       0.8804       0.6312
   1419.31652       0.7036       0.7506    1388.06652       0.8800       0.6346
   1419.30126       0.7540       0.6949    1388.05126       0.8871       0.6111
   1419.28601       0.7349       0.7276    1388.03601       0.8981       0.6286
   1419.27075       0.7510       0.7932    1388.02075       0.8729       0.6203
   1419.25549       0.7274       0.7414    1388.00549       0.8971       0.6447
   1419.24023       0.7728       0.7497    1387.99023       0.9079       0.6155
   1419.22497       0.7429       0.7402    1387.97497       0.8405       0.6168
   1419.20971       0.7561       0.7419    1387.95971       0.8903       0.6637
   1419.19445       0.7710       0.7532    1387.94445       0.8518       0.5843
   1419.17919       0.7673       0.7770    1387.92919       0.8891       0.5925
   1419.16394       0.7476       0.7318    1387.91394       0.8632       0.6030
   1419.14868       0.7425       0.7464    1387.89868       0.8603       0.5888
   1419.13342       0.7440       0.7113    1387.88342       0.8480       0.5770
   1419.11816       0.7601       0.8180    1387.86816       0.8854       0.6041
   1419.10290       0.7347       0.7247    1387.85290       0.8860       0.5672
   1419.08764       0.7521       0.7621    1387.83764       0.8366       0.5900
   1419.07238       0.7643       0.7801    1387.82238       0.8952       0.6177
   1419.05712       0.7564       0.7896    1387.80712       0.8916       0.5595
   1419.04187       0.7514       0.8207    1387.79187       0.8371       0.5587
   1419.02661       0.7511       0.7431    1387.77661       0.9162       0.5433
   1419.01135       0.7164       0.7890    1387.76135       0.8893       0.5663
   1418.99609       0.7692       0.7842    1387.74609       0.9406       0.5378
   1418.98083       0.7473       0.7988    1387.73083       0.8977       0.5571
   1418.96557       0.7362       0.7983    1387.71557       0.8745       0.5678
   1418.95031       0.7693       0.8041    1387.70031       0.8903       0.5200
   1418.93505       0.7619       0.7610    1387.68505       0.9001       0.5377
   1418.91979       0.7373       0.7994    1387.66979       0.8720       0.5478
   1418.90454       0.7530       0.7808    1387.65454       0.8566       0.5029
   1418.88928       0.7700       0.8644    1387.63928       0.8772       0.5397
   1418.87402       0.7176       0.7874    1387.62402       0.8860       0.5386
   1418.85876       0.7868       0.8033    1387.60876       0.9574       0.5246
   1418.84350       0.7637       0.8012    1387.59350       0.8947       0.5330
   1418.82824       0.7604       0.8290    1387.57824       0.8914       0.4862
   1418.81298       0.7453       0.8263    1387.56298       0.9000       0.5253
   1418.79772       0.7506       0.8080    1387.54772       0.8591       0.5565
   1418.78247       0.7682       0.8641    1387.53247       0.8843       0.5363
   1418.76721       0.7693       0.7995    1387.51721       0.8610       0.5123
   1418.75195       0.7675       0.7954    1387.50195       0.9112       0.5426
   1418.73669       0.7545       0.8583    1387.48669       0.8931       0.5064
   1418.72143       0.7873       0.8011    1387.47143       0.9022       0.5587
   1418.70617       0.7746       0.8223    1387.45617       0.8549       0.5208
   1418.69091       0.7559       0.8364    1387.44091       0.8631       0.5047
   1418.67565       0.7660       0.8124    1387.42565       0.8780       0.5196
   1418.66040       0.7887       0.8495    1387.41040       0.9189       0.4867
   1418.64514       0.7950       0.7805    1387.39514       0.9106       0.4897
   1418.62988       0.7663       0.8227    1387.37988       0.9143       0.4842
   1418.61462       0.7759       0.8500    1387.36462       0.8822       0.5011
   1418.59936       0.7558       0.8458    1387.34936       0.8962       0.4766
   1418.58410       0.7999       0.8358    1387.33410       0.8624       0.4707
   1418.56884       0.7775       0.8599    1387.31884       0.9100       0.4744
   1418.55358       0.7918       0.8840    1387.30358       0.9112       0.4589
   1418.53833       0.7869       0.8467    1387.28833       0.9201       0.4872
   1418.52307       0.7635       0.7947    1387.27307       0.8760       0.4642
   1418.50781       0.7662       0.9156    1387.25781       0.9041       0.4975
   1418.49255       0.7997       0.8688    1387.24255       0.8687       0.4474
   1418.47729       0.7627       0.8574    1387.22729       0.8802       0.4466
   1418.46203       0.8109       0.8767    1387.21203       0.8663       0.4774
   1418.44677       0.7588       0.8414    1387.19677       0.9196       0.4734
   1418.43151       0.7616       0.8279    1387.18151       0.8850       0.4782
   1418.41625       0.7840       0.8485    1387.16625       0.9098       0.4511
   1418.40100       0.7888       0.8526    1387.15100       0.9250       0.4236
   1418.38574       0.7734       0.8606    1387.13574       0.8559       0.4233
   1418.37048       0.8164       0.8484    1387.12048       0.8740       0.4598
   1418.35522       0.7776       0.8730    1387.10522       0.8872       0.4414
   1418.33996       0.7991       0.8500    1387.08996       0.9008       0.4564
   1418.32470       0.8005       0.8599    1387.07470       0.8864       0.4446
   1418.30944       0.7664       0.8946    1387.05944       0.9568       0.4552
   1418.29418       0.7646       0.8651    1387.04418       0.8863       0.4467
   1418.27893       0.7671       0.8600    1387.02893       0.9069       0.4163
   1418.26367       0.7850       0.8897    1387.01367       0.9245       0.4302
   1418.24841       0.7498       0.9344    1386.99841       0.8620       0.4028
   1418.23315       0.7789       0.8846    1386.98315       0.8641       0.4082
   1418.21789       0.7979       0.8662    1386.96789       0.9273       0.3763
   1418.20263       0.7888       0.9023    1386.95263       0.8588       0.4386
   1418.18737       0.7949       0.9357    1386.93737       0.8954       0.4357
   1418.17211       0.7684       0.8988    1386.92211       0.8672       0.3940
   1418.15686       0.8170       0.9106    1386.90686       0.8524       0.4214
   1418.14160       0.8061       0.8783    1386.89160       0.8747       0.3780
   1418.12634       0.8048       0.9046    1386.87634       0.8968       0.3994
   1418.11108       0.7950       0.8976    1386.86108       0.8996       0.3971
   1418.09582       0.7859       0.9289    1386.84582       0.8097       0.3648
   1418.08056       0.7850       0.8900    1386.83056       0.8779       0.4293
   1418.06530       0.8253       0.8961    1386.81530       0.8770       0.4103
   1418.05004       0.7775       0.9139    1386.80004       0.8880       0.3717
   1418.03479       0.8198       0.8608    1386.78479       0.9153       0.4155
   1418.01953       0.8020       0.9158    1386.76953       0.8731       0.3773
   1418.00427       0.8232       0.9578    1386.75427       0.8577       0.3906
   1417.98901       0.8161       0.9860    1386.73901       0.8500       0.3763
   1417.97375       0.8047       0.9373    1386.72375       0.8757       0.3974
   1417.95849       0.7693       0.9540    1386.70849       0.8643       0.3713
   1417.94323       0.7689       0.9517    1386.69323       0.9108       0.3426
   1417.92797       0.8295       0.9444    1386.67797       0.8902       0.3678
   1417.91271       0.7976       0.9437    1386.66271       0.9037       0.3657
   1417.89746       0.8285       0.9019    1386.64746       0.9000       0.3682
   1417.88220       0.8477       0.9512    1386.63220       0.9031       0.3989
   1417.86694       0.8093       0.9458    1386.61694       0.8645       0.3867
   1417.85168       0.8348       0.9541    1386.60168       0.8668       0.4053
   1417.83642       0.8182       0.9654    1386.58642       0.8874       0.3679
   1417.82116       0.8147       0.9763    1386.57116       0.8429       0.3728
   1417.80590       0.8191       0.9955    1386.55590       0.9129       0.3548
   1417.79064       0.7961       0.9336    1386.54064       0.8860       0.3717
   1417.77539       0.7874       0.9560    1386.52539       0.9056       0.3821
   1417.76013       0.8271       0.9818    1386.51013       0.8880       0.3622
   1417.74487       0.8751       0.9554    1386.49487       0.9333       0.3588
   1417.72961       0.8070       0.9958    1386.47961       0.8726       0.3127
   1417.71435       0.8110       0.9884    1386.46435       0.8662       0.3541
   1417.69909       0.8513       1.0144    1386.44909       0.8570       0.3598
   1417.68383       0.8628       0.9867    1386.43383       0.8817       0.3387
   1417.66857       0.8710       0.9337    1386.41857       0.9387       0.3484
   1417.65332       0.8482       0.9566    1386.40332       0.8799       0.3546
   1417.63806       0.8143       0.9715    1386.38806       0.8553       0.3766
   1417.62280       0.8444       0.9771    1386.37280       0.8467       0.3238
   1417.60754       0.8835       1.0095    1386.35754       0.9333       0.3266
   1417.59228       0.8450       0.9776    1386.34228       0.8465       0.2987
   1417.57702       0.8209       1.0509    1386.32702       0.8999       0.3054
   1417.56176       0.8395       0.9948    1386.31176       0.8794       0.3244
   1417.54650       0.8317       1.0149    1386.29650       0.8656       0.3298
   1417.53125       0.8300       1.0862    1386.28125       0.9119       0.2989
   1417.51599       0.8395       1.0213    1386.26599       0.8521       0.3421
   1417.50073       0.8667       0.9963    1386.25073       0.8649       0.3124
   1417.48547       0.8564       1.0097    1386.23547       0.8839       0.3440
   1417.47021       0.8273       0.9789    1386.22021       0.9115       0.3308
   1417.45495       0.8447       1.0190    1386.20495       0.8843       0.3333
   1417.43969       0.8551       0.9715    1386.18969       0.8843       0.2723
   1417.42443       0.8602       0.9531    1386.17443       0.8391       0.3146
   1417.40917       0.8167       1.0368    1386.15917       0.8898       0.3010
   1417.39392       0.8190       1.0254    1386.14392       0.8814       0.3126
   1417.37866       0.8941       1.0435    1386.12866       0.8624       0.3538
   1417.36340       0.8738       0.9784    1386.11340       0.8609       0.2993
   1417.34814       0.8666       1.0487    1386.09814       0.8919       0.3679
   1417.33288       0.8331       1.0063    1386.08288       0.8801       0.3743
   1417.31762       0.8608       0.9967    1386.06762       0.8808       0.3106
   1417.30236       0.8613       1.0224    1386.05236       0.8952       0.3083
   1417.28710       0.8778       1.0197    1386.03710       0.8856       0.2894
   1417.27185       0.8189       0.9964    1386.02185       0.8867       0.2637
   1417.25659       0.8523       1.0296    1386.00659       0.8868       0.3368
   1417.24133       0.8308       1.0181    1385.99133       0.8445       0.3287
   1417.22607       0.8464       1.0641    1385.97607       0.9148       0.3501
   1417.21081       0.8564       1.0073    1385.96081       0.8996       0.3275
   1417.19555       0.8236       1.0998    1385.94555       0.8980       0.3106
   1417.18029       0.8346       1.0437    1385.93029       0.8959       0.2888
   1417.16503       0.7891       1.0943    1385.91503       0.8988       0.2786
   1417.14978       0.8020       1.0007    1385.89978       0.8594       0.3090
   1417.13452       0.8365       0.9811    1385.88452       0.8952       0.3215
   1417.11926       0.8298       1.0434    1385.86926       0.8907       0.3347
   1417.10400       0.8595       1.0188    1385.85400       0.9136       0.3058
   1417.08874       0.8492       1.0077    1385.83874       0.8919       0.3259
   1417.07348       0.8527       1.0197    1385.82348       0.8747       0.3346
   1417.05822       0.8088       1.0179    1385.80822       0.8974       0.3136
   1417.04296       0.8443       1.0266    1385.79296       0.8879       0.3132
   1417.02771       0.8933       1.0587    1385.77771       0.9140       0.3390
   1417.01245       0.8889       0.9746    1385.76245       0.8617       0.3052
   1416.99719       0.8562       1.0267    1385.74719       0.8566       0.3031
   1416.98193       0.8642       1.0270    1385.73193       0.8738       0.3127
   1416.96667       0.8339       1.0039    1385.71667       0.8309       0.2730
   1416.95141       0.8018       0.9839    1385.70141       0.9192       0.2937
   1416.93615       0.8329       1.0384    1385.68615       0.9138       0.3337
   1416.92089       0.8936       1.0601    1385.67089       0.8758       0.2986
   1416.90563       0.8401       1.1098    1385.65563       0.8648       0.2984
   1416.89038       0.8298       1.0458    1385.64038       0.8780       0.2673
   1416.87512       0.8431       1.0744    1385.62512       0.9014       0.3213
   1416.85986       0.8195       0.9704    1385.60986       0.8718       0.2847
   1416.84460       0.8739       1.0019    1385.59460       0.8977       0.3039
   1416.82934       0.8585       0.9874    1385.57934       0.8916       0.3131
   1416.81408       0.9072       1.0473    1385.56408       0.8948       0.2633
   1416.79882       0.8808       1.0546    1385.54882       0.8792       0.3249
   1416.78356       0.8344       1.0639    1385.53356       0.8649       0.2980
   1416.76831       0.8610       1.0668    1385.51831       0.8900       0.2902
   1416.75305       0.8577       1.0044    1385.50305       0.8722       0.2822
   1416.73779       0.8603       1.0328    1385.48779       0.8558       0.2890
   1416.72253       0.8159       1.0372    1385.47253       0.8712       0.3301
   1416.70727       0.8659       1.0180    1385.45727       0.8931       0.3311
   1416.69201       0.8515       1.0352    1385.44201       0.8986       0.3237
   1416.67675       0.8211       1.0182    1385.42675       0.8520       0.2697
   1416.66149       0.8410       1.0736    1385.41149       0.8188       0.3462
   1416.64624       0.8528       0.9942    1385.39624       0.8605       0.3025
   1416.63098       0.8229       1.0537    1385.38098       0.8902       0.3294
   1416.61572       0.8659       1.0323    1385.36572       0.8772       0.3026
   1416.60046       0.8117       0.9891    1385.35046       0.8385       0.3103
   1416.58520       0.8373       1.0558    1385.33520       0.9021       0.3050
   1416.56994       0.8367       1.0452    1385.31994       0.8987       0.3000
   1416.55468       0.8049       1.0253    1385.30468       0.9072       0.2683
   1416.53942       0.8743       0.9996    1385.28942       0.8809       0.2855
   1416.52417       0.8284       0.9833    1385.27417       0.8758       0.2858
   1416.50891       0.7929       1.0365    1385.25891       0.8777       0.2588
   1416.49365       0.8523       0.9832    1385.24365       0.8630       0.2814
   1416.47839       0.8702       1.0156    1385.22839       0.8485       0.3560
   1416.46313       0.8467       1.0255    1385.21313       0.8005       0.3502
   1416.44787       0.8249       1.0455    1385.19787       0.8975       0.3023
   1416.43261       0.8421       1.0148    1385.18261       0.8878       0.3346
   1416.41735       0.8270       0.9957    1385.16735       0.8708       0.3027
   1416.40209       0.8457       1.0360    1385.15209       0.8938       0.3488
   1416.38684       0.8239       1.0045    1385.13684       0.8615       0.3663
   1416.37158       0.8751       0.9380    1385.12158       0.8622       0.2694
   1416.35632       0.8488       0.9536    1385.10632       0.8885       0.3334
   1416.34106       0.8350       1.0236    1385.09106       0.8764       0.3417
   1416.32580       0.8828       0.9482    1385.07580       0.8801       0.3230
   1416.31054       0.8215       1.0074    1385.06054       0.8537       0.3250
   1416.29528       0.8321       1.0089    1385.04528       0.8410       0.2937
   1416.28002       0.8387       0.9724    1385.03002       0.8925       0.2989
   1416.26477       0.8145       1.0222    1385.01477       0.8436       0.3641
   1416.24951       0.7836       0.9696    1384.99951       0.8846       0.3249
   1416.23425       0.8371       1.0727    1384.98425       0.8608       0.2828
   1416.21899       0.8275       1.0074    1384.96899       0.8895       0.2845
   1416.20373       0.8346       1.0163    1384.95373       0.8322       0.2725
   1416.18847       0.8148       1.0015    1384.93847       0.8417       0.3588
   1416.17321       0.7918       0.9763    1384.92321       0.8434       0.3445
   1416.15795       0.7971       0.9806    1384.90795       0.8838       0.2565
   1416.14270       0.8426       1.0000    1384.89270       0.8333       0.3071
   1416.12744       0.8396       0.9815    1384.87744       0.8200       0.2758
   1416.11218       0.8233       1.0402    1384.86218       0.8412       0.2998
   1416.09692       0.8393       1.0231    1384.84692       0.8586       0.3184
   1416.08166       0.8328       1.0253    1384.83166       0.8574       0.3301
   1416.06640       0.8141       0.9747    1384.81640       0.8656       0.3433
   1416.05114       0.8084       0.9807    1384.80114       0.9186       0.2883
   1416.03588       0.7980       1.0146    1384.78588       0.8677       0.3400
   1416.02062       0.8443       1.0007    1384.77062       0.8141       0.2421
   1416.00537       0.8473       0.9563    1384.75537       0.8410       0.2827
   1415.99011       0.8223       0.9603    1384.74011       0.8425       0.3391
   1415.97485       0.8291       0.9441    1384.72485       0.8928       0.3311
   1415.95959       0.8409       0.9838    1384.70959       0.9089       0.2998
   1415.94433       0.8311       0.9572    1384.69433       0.8781       0.2996
   1415.92907       0.7944       0.9377    1384.67907       0.8169       0.2947
   1415.91381       0.8168       0.9655    1384.66381       0.8658       0.3883
   1415.89855       0.8205       0.9459    1384.64855       0.8606       0.2806
   1415.88330       0.7834       0.9596    1384.63330       0.8118       0.3259
   1415.86804       0.8184       0.9380    1384.61804       0.8020       0.3656
   1415.85278       0.8133       0.9180    1384.60278       0.8682       0.3495
   1415.83752       0.7746       0.8935    1384.58752       0.8107       0.3218
   1415.82226       0.8324       0.9584    1384.57226       0.8430       0.3432
   1415.80700       0.8053       0.9067    1384.55700       0.9012       0.3050
   1415.79174       0.8208       0.9417    1384.54174       0.9150       0.3534
   1415.77648       0.8483       0.9468    1384.52648       0.9046       0.3156
   1415.76123       0.8239       0.9796    1384.51123       0.8470       0.2875
   1415.74597       0.8451       0.9231    1384.49597       0.8169       0.2943
   1415.73071       0.7678       0.8673    1384.48071       0.8135       0.3017
   1415.71545       0.8116       0.8933    1384.46545       0.8494       0.3049
   1415.70019       0.7776       0.9169    1384.45019       0.8441       0.3180
   1415.68493       0.7805       0.9156    1384.43493       0.8168       0.2445
   1415.66967       0.8128       0.9137    1384.41967       0.8402       0.3717
   1415.65441       0.8460       0.8760    1384.40441       0.8345       0.3226
   1415.63916       0.8298       0.8515    1384.38916       0.8360       0.2653
   1415.62390       0.7799       0.8978    1384.37390       0.8674       0.2785
   1415.60864       0.8117       0.9250    1384.35864       0.7955       0.3090
   1415.59338       0.8034       0.9191    1384.34338       0.8580       0.3424
   1415.57812       0.8063       0.9268    1384.32812       0.8432       0.3050
   1415.56286       0.8045       0.8971    1384.31286       0.8359       0.3304
   1415.54760       0.7894       0.8687    1384.29760       0.8473       0.2931
   1415.53234       0.8085       0.8532    1384.28234       0.8467       0.3391
   1415.51708       0.8581       0.9136    1384.26708       0.8501       0.3272
   1415.50183       0.8235       0.8945    1384.25183       0.8490       0.3326
   1415.48657       0.7714       0.7996    1384.23657       0.8150       0.3210
   1415.47131       0.7893       0.8487    1384.22131       0.8395       0.3009
   1415.45605       0.8097       0.8513    1384.20605       0.8640       0.3103
   1415.44079       0.7354       0.8733    1384.19079       0.8528       0.2948
   1415.42553       0.7897       0.8852    1384.17553       0.8141       0.2549
   1415.41027       0.8420       0.8431    1384.16027       0.8248       0.3058
   1415.39501       0.8077       0.8690    1384.14501       0.7805       0.3291
   1415.37976       0.7713       0.8587    1384.12976       0.8189       0.3067
   1415.36450       0.8188       0.7666    1384.11450       0.8480       0.3142
   1415.34924       0.7459       0.8058    1384.09924       0.8216       0.3286
   1415.33398       0.7834       0.8185    1384.08398       0.7927       0.2786
   1415.31872       0.7730       0.8514    1384.06872       0.8353       0.2904
   1415.30346       0.8348       0.7799    1384.05346       0.8550       0.3421
   1415.28820       0.7886       0.7656    1384.03820       0.8375       0.2889
   1415.27294       0.8352       0.7627    1384.02294       0.7921       0.3239
   1415.25769       0.8278       0.8377    1384.00769       0.8449       0.3558
   1415.24243       0.7629       0.7367    1383.99243       0.8445       0.3116
   1415.22717       0.8250       0.8541    1383.97717       0.8205       0.3193
   1415.21191       0.7600       0.7405    1383.96191       0.8487       0.3028
   1415.19665       0.7650       0.8217    1383.94665       0.8039       0.2664
   1415.18139       0.7914       0.8630    1383.93139       0.8629       0.3568
   1415.16613       0.8174       0.7692    1383.91613       0.8011       0.3285
   1415.15087       0.7891       0.7800    1383.90087       0.8727       0.3568
   1415.13562       0.7740       0.7406    1383.88562       0.8009       0.3268
   1415.12036       0.7710       0.7387    1383.87036       0.8483       0.2969
   1415.10510       0.7727       0.7749    1383.85510       0.7980       0.3057
   1415.08984       0.7566       0.7414    1383.83984       0.8076       0.3416
   1415.07458       0.7919       0.7170    1383.82458       0.8307       0.3055
   1415.05932       0.7967       0.7686    1383.80932       0.8181       0.3048
   1415.04406       0.7754       0.7185    1383.79406       0.8087       0.3061
   1415.02880       0.7454       0.7125    1383.77880       0.7937       0.3050
   1415.01354       0.7745       0.7291    1383.76354       0.7776       0.3574
   1414.99829       0.8172       0.7427    1383.74829       0.8026       0.3380
   1414.98303       0.7917       0.7698    1383.73303       0.8430       0.3252
   1414.96777       0.8036       0.7945    1383.71777       0.8319       0.3194
   1414.95251       0.7845       0.7206    1383.70251       0.8108       0.3478
   1414.93725       0.7644       0.6730    1383.68725       0.8365       0.3430
   1414.92199       0.7271       0.7199    1383.67199       0.7772       0.2918
   1414.90673       0.8063       0.7221    1383.65673       0.7806       0.3434
   1414.89147       0.7279       0.6357    1383.64147       0.8339       0.2986
   1414.87622       0.8043       0.7128    1383.62622       0.7995       0.3231
