#     FILENAME=Skynet_59212_ASTRO_204_M31_JuliaMoylan_51656_627.A.onoff.cal.txt
#     BASENAME=Skynet_59212_ASTRO_204_M31_JuliaMoylan_51656_627
#      CONTROL=SKYNET
#     PROJCODE=Skynet_59212_ASTRO_204_M31_JuliaMoylan_51656
#     DATAROOT=/raid/scratch/cyborg/SkynetData
#      DATADIR=/raid/scratch/cyborg
#     DATADIR2=/raid/scratch/cyborg/SkynetData/Skynet_59212_ASTRO_204_M31_Juli
#     SCANNAME=2019_06_26_10
#     SRC_NAME=ASTRO_204_M31_JuliaMoylan
#     OBSERVER=haverford2_26746
#     DATE_OBS=2020-12-29T22:03:06.980
#        OBSID=51656
#      SCANNUM=627
#          MJD=59212.9188308
#          UTC=79387
#     SCANTYPE=onoff
#     DATAMODE=HIRES
#     RECEIVER=Rx1_2
#      OBSFREQ=1395.0000
# Actual_FREQ1=1421.8000,
# Actual_FREQ2=1390.5500
#    LO1Tuning=6856.1800
#     RFFILTER=1355_1435
#        OBSBW=-15.6250
#     EFFBANDW=15.6250
#        NCHAN=1024
#    STARTCHAN=51
#     STOPCHAN=972
#         TINT=0.9999
#         TBIN=0.00419430
#       ACCLEN=2048 
#     DURATION=448.00
#     EXPOSURE=402.98
#        FOCUS=37.071
#       RA,DEC=00:42:59.44, 41:16:07.17
#      RA(deg)=12.68076
#     DEC(deg)=41.26880
#   WIDTH(deg)=3.0192x0.0015
#    AZIM(deg)=72.6165
#    ELEV(deg)=72.6186
#     COORDREF=RA_DEC_
#         HREF=10.6847
#         VREF=41.2688
#      RADESYS=FK5
#       OFFSYS=RADEC
#      EQUINOX=2000.00
#     IFATTENS=22.00, 15.00
#   BALANCELEV=1.200 
#   POWER_XLYR=[1.76, 3.08] 
#       VELDEF=RADI-OBS 
#     VELOCITY=0.000 
#         NPOL=2 
#      POLMODE=Linear 
#      POLTYPE=XXYY 
#      WARNING=None 
#     NOISECAL=HI 
#       PRECAL=5 
#      POSTCAL=5 
#     CRYOTEMP=24 
#      BOXTEMP=33 
#         TSYS=XX1:35.46, YY1:43.40
#         TSYS=XX2:40.31, YY2:40.08
#         TCAL=XX1:9.17, YY1:10.07
#         TCAL=XX2:9.14, YY2:9.87
# Calibrated spectra: Tsys*(ON-OFF)/OFF 
#                
#                
#Freq1(MHz)         XX1          YY1   Freq2(MHz)       XX2         YY2 
   1428.83430       0.7574       0.3423    1397.58430       1.0927       0.7909
   1428.81904       0.7398       0.3087    1397.56904       1.0427       0.7664
   1428.80378       0.6781       0.3041    1397.55378       1.0853       0.7924
   1428.78853       0.7396       0.3242    1397.53853       1.0498       0.7464
   1428.77327       0.7649       0.3312    1397.52327       1.1099       0.6823
   1428.75801       0.7550       0.3364    1397.50801       1.0709       0.7511
   1428.74275       0.7547       0.2386    1397.49275       0.9911       0.6696
   1428.72749       0.7429       0.2994    1397.47749       1.0604       0.6339
   1428.71223       0.7189       0.2044    1397.46223       1.0568       0.7287
   1428.69697       0.7396       0.2674    1397.44697       1.0639       0.6941
   1428.68171       0.7458       0.3335    1397.43171       0.9930       0.6610
   1428.66646       0.7528       0.3180    1397.41646       1.0471       0.6733
   1428.65120       0.7495       0.2371    1397.40120       1.0794       0.6834
   1428.63594       0.7021       0.2588    1397.38594       1.0382       0.6471
   1428.62068       0.6900       0.3236    1397.37068       1.1161       0.6428
   1428.60542       0.7452       0.2912    1397.35542       1.0121       0.5443
   1428.59016       0.7601       0.2333    1397.34016       1.0130       0.6540
   1428.57490       0.7168       0.3334    1397.32490       0.9804       0.5940
   1428.55964       0.7372       0.2266    1397.30964       1.0153       0.5959
   1428.54438       0.7392       0.2691    1397.29438       0.9526       0.4665
   1428.52913       0.7399       0.1866    1397.27913       0.9802       0.5846
   1428.51387       0.7241       0.2568    1397.26387       0.9546       0.5099
   1428.49861       0.7235       0.2129    1397.24861       0.9956       0.4857
   1428.48335       0.7317       0.2802    1397.23335       0.9874       0.4963
   1428.46809       0.7021       0.2527    1397.21809       0.9824       0.5090
   1428.45283       0.7065       0.2573    1397.20283       0.9838       0.5075
   1428.43757       0.7411       0.1895    1397.18757       0.9603       0.3791
   1428.42231       0.7629       0.2689    1397.17231       0.9359       0.4071
   1428.40706       0.7516       0.1966    1397.15706       0.9960       0.5158
   1428.39180       0.7216       0.1176    1397.14180       0.9450       0.4933
   1428.37654       0.7069       0.1309    1397.12654       0.9151       0.4674
   1428.36128       0.7173       0.1365    1397.11128       0.9955       0.3668
   1428.34602       0.6889       0.2320    1397.09602       0.9787       0.4901
   1428.33076       0.7039       0.1776    1397.08076       0.9394       0.4002
   1428.31550       0.7404       0.2150    1397.06550       0.9632       0.5096
   1428.30024       0.7095       0.1646    1397.05024       0.9271       0.4957
   1428.28499       0.7572       0.1795    1397.03499       0.9079       0.5449
   1428.26973       0.7433       0.2239    1397.01973       0.9269       0.3654
   1428.25447       0.7729       0.1491    1397.00447       0.9480       0.5681
   1428.23921       0.7126       0.1592    1396.98921       0.9597       0.5194
   1428.22395       0.7271       0.1388    1396.97395       0.8943       0.5407
   1428.20869       0.7255       0.1801    1396.95869       0.9379       0.4505
   1428.19343       0.6579       0.1811    1396.94343       0.9784       0.5504
   1428.17817       0.7434       0.1240    1396.92817       0.9720       0.5285
   1428.16292       0.6894       0.2168    1396.91292       0.8709       0.6463
   1428.14766       0.7088       0.1632    1396.89766       0.9533       0.3582
   1428.13240       0.6896       0.1445    1396.88240       0.9434       0.5538
   1428.11714       0.7266       0.1534    1396.86714       0.9381       0.5434
   1428.10188       0.7071       0.0917    1396.85188       0.9185       0.4535
   1428.08662       0.7169       0.1299    1396.83662       0.9362       0.5481
   1428.07136       0.7138       0.1827    1396.82136       0.9409       0.6832
   1428.05610       0.7402       0.0765    1396.80610       0.9709       0.5871
   1428.04084       0.7300       0.1613    1396.79084       0.9110       0.6093
   1428.02559       0.7751       0.1206    1396.77559       0.9319       0.5660
   1428.01033       0.7685       0.1028    1396.76033       0.9980       0.7231
   1427.99507       0.7216       0.1619    1396.74507       0.9073       0.7066
   1427.97981       0.7690       0.1492    1396.72981       0.9033       0.8063
   1427.96455       0.7086       0.0781    1396.71455       0.9552       0.6292
   1427.94929       0.7811       0.0947    1396.69929       0.9370       0.7586
   1427.93403       0.7091       0.0679    1396.68403       0.9557       0.8318
   1427.91877       0.6944       0.1230    1396.66877       0.9125       0.7790
   1427.90352       0.7384       0.0868    1396.65352       0.9037       0.7847
   1427.88826       0.7261       0.1118    1396.63826       0.9298       0.7248
   1427.87300       0.7050       0.0932    1396.62300       0.9454       0.8010
   1427.85774       0.7065       0.0974    1396.60774       0.8969       0.8393
   1427.84248       0.7525       0.0883    1396.59248       0.9636       0.7897
   1427.82722       0.6787       0.0777    1396.57722       0.8510       0.7526
   1427.81196       0.7275       0.1017    1396.56196       0.9124       0.8055
   1427.79670       0.6558       0.1106    1396.54670       0.8845       0.8293
   1427.78145       0.7153       0.1506    1396.53145       0.9125       0.8625
   1427.76619       0.7604       0.1066    1396.51619       0.9114       0.8639
   1427.75093       0.7472       0.0819    1396.50093       0.9709       0.8583
   1427.73567       0.7176       0.0762    1396.48567       0.9613       0.8911
   1427.72041       0.7522       0.1382    1396.47041       0.9857       0.9650
   1427.70515       0.7325       0.1216    1396.45515       0.8748       0.8688
   1427.68989       0.6665       0.1421    1396.43989       0.8847       0.9207
   1427.67463       0.7285       0.1100    1396.42463       0.8923       0.9418
   1427.65937       0.7265       0.0800    1396.40937       0.8738       0.9747
   1427.64412       0.7574       0.0741    1396.39412       0.9224       0.9907
   1427.62886       0.7195       0.0889    1396.37886       0.8785       0.8914
   1427.61360       0.7278       0.0836    1396.36360       0.9257       0.9380
   1427.59834       0.7389       0.0174    1396.34834       0.8808       0.9634
   1427.58308       0.7745       0.1123    1396.33308       0.8890       1.0023
   1427.56782       0.7654       0.0642    1396.31782       0.8544       0.9826
   1427.55256       0.7413       0.0580    1396.30256       0.8992       0.9750
   1427.53730       0.7718       0.1258    1396.28730       0.8223       0.9760
   1427.52205       0.7022       0.0539    1396.27205       0.8568       0.9656
   1427.50679       0.7384       0.0490    1396.25679       0.9000       1.0042
   1427.49153       0.6841       0.0968    1396.24153       0.9044       1.0238
   1427.47627       0.6741      -0.0024    1396.22627       0.8716       1.0891
   1427.46101       0.6894       0.0151    1396.21101       0.8828       0.9529
   1427.44575       0.7306       0.0932    1396.19575       0.8533       0.9523
   1427.43049       0.7211       0.0673    1396.18049       0.8719       0.9987
   1427.41523       0.6936       0.0792    1396.16523       0.8614       0.9752
   1427.39998       0.7266      -0.0029    1396.14998       0.7834       1.0062
   1427.38472       0.7236       0.0544    1396.13472       0.7851       1.0228
   1427.36946       0.7362       0.0913    1396.11946       0.8357       1.0230
   1427.35420       0.6860       0.0611    1396.10420       0.8758       0.9923
   1427.33894       0.7298       0.0605    1396.08894       0.8470       1.0061
   1427.32368       0.7461       0.0821    1396.07368       0.8114       1.0614
   1427.30842       0.7213       0.0504    1396.05842       0.8408       1.0216
   1427.29316       0.7456       0.0986    1396.04316       0.8389       1.0417
   1427.27791       0.7507       0.0481    1396.02791       0.7836       1.0049
   1427.26265       0.7294       0.0590    1396.01265       0.8326       0.9859
   1427.24739       0.7620       0.0297    1395.99739       0.8022       1.0275
   1427.23213       0.7522       0.0693    1395.98213       0.8054       1.0977
   1427.21687       0.7464       0.0598    1395.96687       0.8169       1.0315
   1427.20161       0.7321       0.0522    1395.95161       0.7784       0.9957
   1427.18635       0.7411       0.0956    1395.93635       0.7952       1.0595
   1427.17109       0.7527       0.0573    1395.92109       0.7777       1.0134
   1427.15583       0.7486       0.0609    1395.90583       0.7789       1.0516
   1427.14058       0.7716       0.0262    1395.89058       0.7514       1.0226
   1427.12532       0.7281       0.0597    1395.87532       0.8130       1.0338
   1427.11006       0.7174       0.0120    1395.86006       0.7612       0.9969
   1427.09480       0.7410      -0.0262    1395.84480       0.7670       0.9941
   1427.07954       0.6921       0.0399    1395.82954       0.7831       1.0474
   1427.06428       0.7427       0.0314    1395.81428       0.7479       1.0728
   1427.04902       0.7460       0.0334    1395.79902       0.6849       1.0155
   1427.03376       0.7259       0.1190    1395.78376       0.7946       1.0938
   1427.01851       0.7727       0.0721    1395.76851       0.8065       1.0472
   1427.00325       0.7170       0.0223    1395.75325       0.7724       1.0279
   1426.98799       0.7207       0.0989    1395.73799       0.7469       1.0700
   1426.97273       0.6980       0.1197    1395.72273       0.7665       1.0129
   1426.95747       0.7472       0.0721    1395.70747       0.7457       1.0388
   1426.94221       0.7629       0.0471    1395.69221       0.7479       1.0086
   1426.92695       0.7558       0.0121    1395.67695       0.7688       0.9774
   1426.91169       0.6803       0.0166    1395.66169       0.8041       1.0620
   1426.89644       0.7632       0.0381    1395.64644       0.7169       1.0191
   1426.88118       0.7129       0.0695    1395.63118       0.8022       0.9683
   1426.86592       0.7398       0.0118    1395.61592       0.7563       1.0125
   1426.85066       0.6719       0.1058    1395.60066       0.7639       1.0173
   1426.83540       0.7194       0.0758    1395.58540       0.7634       1.0131
   1426.82014       0.7175       0.0418    1395.57014       0.7655       1.0549
   1426.80488       0.7492       0.0461    1395.55488       0.7210       0.9769
   1426.78962       0.6864       0.1039    1395.53962       0.6969       1.0334
   1426.77437       0.7138       0.0657    1395.52437       0.7260       0.9868
   1426.75911       0.7921       0.0195    1395.50911       0.7480       0.9900
   1426.74385       0.7245       0.0979    1395.49385       0.7598       1.0566
   1426.72859       0.7053       0.0762    1395.47859       0.7131       1.0002
   1426.71333       0.7678       0.0108    1395.46333       0.7490       0.9803
   1426.69807       0.7632       0.1033    1395.44807       0.7458       1.0275
   1426.68281       0.7430       0.1240    1395.43281       0.6844       1.0044
   1426.66755       0.7648       0.0828    1395.41755       0.6986       1.0300
   1426.65229       0.7373       0.0653    1395.40229       0.7111       0.9863
   1426.63704       0.7150       0.0493    1395.38704       0.6697       1.0333
   1426.62178       0.8037       2.4739    1395.37178       0.6294       1.0055
   1426.60652       0.7208       0.0268    1395.35652       0.7407       1.0171
   1426.59126       0.6816      -0.0455    1395.34126       0.6847       1.0115
   1426.57600       0.7442      -0.0223    1395.32600       0.6503       1.0037
   1426.56074       0.7645       0.0835    1395.31074       0.6233       0.9922
   1426.54548       0.7421       0.0900    1395.29548       0.7081       0.9523
   1426.53022       0.7656       0.0439    1395.28022       0.6620       0.9849
   1426.51497       0.7403       0.0663    1395.26497       0.6604       1.0367
   1426.49971       0.7401       0.0642    1395.24971       0.7031       1.0173
   1426.48445       0.7658       0.0946    1395.23445       0.7100       0.9319
   1426.46919       0.7696       0.1438    1395.21919       0.6323       0.9275
   1426.45393       0.7338       0.0985    1395.20393       0.6668       0.9523
   1426.43867       0.7472       0.1128    1395.18867       0.6881       0.9807
   1426.42341       0.7862       0.0477    1395.17341       0.6773       0.9751
   1426.40815       0.7571       0.0512    1395.15815       0.7066       0.9121
   1426.39290       0.7595       0.1053    1395.14290       0.6846       0.9302
   1426.37764       0.7827       0.0969    1395.12764       0.6557       0.9431
   1426.36238       0.7413       0.0642    1395.11238       0.6921       0.9542
   1426.34712       0.7403       0.1409    1395.09712       0.6357       0.9750
   1426.33186       0.7701       0.1066    1395.08186       0.6179       0.9340
   1426.31660       0.7498       0.1147    1395.06660       0.6599       0.9030
   1426.30134       0.7095       0.1422    1395.05134       0.6572       0.9565
   1426.28608       0.7667       0.1226    1395.03608       0.6421       0.9403
   1426.27083       0.7485       0.1463    1395.02083       0.6333       0.9804
   1426.25557       0.7685       0.1079    1395.00557       0.6779       0.9606
   1426.24031       0.7853       0.1544    1394.99031       0.6227       0.9262
   1426.22505       0.7534       0.0915    1394.97505       0.6398       0.9567
   1426.20979       0.7307       0.1057    1394.95979       0.6219       0.9016
   1426.19453       0.7097       0.1116    1394.94453       0.6459       0.8603
   1426.17927       0.6990       0.1091    1394.92927       0.6264       0.9033
   1426.16401       0.7619       0.1240    1394.91401       0.6602       0.8884
   1426.14875       0.7480       0.1233    1394.89875       0.6041       0.8990
   1426.13350       0.7491       0.1531    1394.88350       0.5973       0.9593
   1426.11824       0.7515       0.1871    1394.86824       0.6345       0.9110
   1426.10298       0.7566       0.0988    1394.85298       0.5582       0.9283
   1426.08772       0.7413       0.1200    1394.83772       0.5603       0.9445
   1426.07246       0.7629       0.1410    1394.82246       0.6142       0.9178
   1426.05720       0.7468       0.1831    1394.80720       0.5968       0.8895
   1426.04194       0.7640       0.1624    1394.79194       0.6185       0.8385
   1426.02668       0.6893       0.1984    1394.77668       0.6004       0.8672
   1426.01143       0.7834       0.1988    1394.76143       0.5705       0.9237
   1425.99617       0.7656       0.1792    1394.74617       0.5748       0.8579
   1425.98091       0.7453       0.1519    1394.73091       0.6184       0.8984
   1425.96565       0.7717       0.1532    1394.71565       0.6136       0.8702
   1425.95039       0.7823       0.1632    1394.70039       0.6122       0.8941
   1425.93513       0.7321       0.2324    1394.68513       0.5868       0.8625
   1425.91987       0.7500       0.1785    1394.66987       0.6037       0.8633
   1425.90461       0.7770       0.1421    1394.65461       0.5272       0.8904
   1425.88936       0.7834       0.2089    1394.63936       0.5554       0.8145
   1425.87410       0.8173       0.2204    1394.62410       0.5313       0.8163
   1425.85884       0.7104       0.2096    1394.60884       0.5142       0.8448
   1425.84358       0.7256       0.1949    1394.59358       0.5673       0.8358
   1425.82832       0.7366       0.2033    1394.57832       0.5813       0.8592
   1425.81306       0.7664       0.1854    1394.56306       0.5219       0.8687
   1425.79780       0.7403       0.1715    1394.54780       0.5330       0.8377
   1425.78254       0.7790       0.2246    1394.53254       0.5986       0.8376
   1425.76729       0.7457       0.1819    1394.51729       0.5787       0.8017
   1425.75203       0.7738       0.2471    1394.50203       0.5395       0.8008
   1425.73677       0.7778       0.2173    1394.48677       0.5219       0.8371
   1425.72151       0.7288       0.2798    1394.47151       0.5925       0.8572
   1425.70625       0.7538       0.2200    1394.45625       0.5393       0.8509
   1425.69099       0.7232       0.1980    1394.44099       0.5411       0.7976
   1425.67573       0.7145       0.2227    1394.42573       0.6031       0.8186
   1425.66047       0.7845       0.2448    1394.41047       0.5788       0.8395
   1425.64521       0.7192       0.2196    1394.39521       0.5176       0.8262
   1425.62996       0.7682       0.2377    1394.37996       0.5504       0.7564
   1425.61470       0.7746       0.2234    1394.36470       0.5268       0.8139
   1425.59944       0.7538       0.2687    1394.34944       0.5545       0.7743
   1425.58418       0.8067       0.2405    1394.33418       0.4847       0.7465
   1425.56892       0.7400       0.2875    1394.31892       0.5664       0.8041
   1425.55366       0.7576       0.3052    1394.30366       0.5086       0.8220
   1425.53840       0.7515       0.2129    1394.28840       0.5369       0.8475
   1425.52314       0.7649       0.3162    1394.27314       0.5213       0.7642
   1425.50789       0.7256       0.2744    1394.25789       0.5011       0.8090
   1425.49263       0.6902       0.2752    1394.24263       0.5014       0.8130
   1425.47737       0.7187       0.3081    1394.22737       0.5325       0.7710
   1425.46211       0.7300       0.3151    1394.21211       0.4989       0.7790
   1425.44685       0.7570       0.3043    1394.19685       0.5421       0.7527
   1425.43159       0.7821       0.3284    1394.18159       0.5770       0.7473
   1425.41633       0.7921       0.3131    1394.16633       0.5091       0.8327
   1425.40107       0.7629       0.3356    1394.15107       0.4793       0.7591
   1425.38582       0.7954       0.3848    1394.13582       0.5227       0.7721
   1425.37056       0.7733       0.3276    1394.12056       0.5375       0.7750
   1425.35530       0.6978       0.3489    1394.10530       0.5209       0.7803
   1425.34004       0.7667       0.3391    1394.09004       0.5263       0.7345
   1425.32478       0.7376       0.3350    1394.07478       0.5470       0.7690
   1425.30952       0.7725       0.3589    1394.05952       0.5090       0.7377
   1425.29426       0.7557       0.3599    1394.04426       0.4988       0.7750
   1425.27900       0.7740       0.3753    1394.02900       0.5042       0.7692
   1425.26375       0.7533       0.3765    1394.01375       0.4747       0.7753
   1425.24849       0.7378       0.2782    1393.99849       0.4745       0.7318
   1425.23323       0.7417       0.3172    1393.98323       0.5123       0.7503
   1425.21797       0.7585       0.3847    1393.96797       0.4810       0.7684
   1425.20271       0.7024       0.4185    1393.95271       0.4965       0.7666
   1425.18745       0.7455       0.3564    1393.93745       0.4948       0.6947
   1425.17219       0.7236       0.3886    1393.92219       0.5358       0.7188
   1425.15693       0.7542       0.3795    1393.90693       0.5061       0.7867
   1425.14167       0.7894       0.4414    1393.89167       0.5003       0.7175
   1425.12642       0.7658       0.3440    1393.87642       0.4757       0.7292
   1425.11116       0.7844       0.3520    1393.86116       0.4514       0.7303
   1425.09590       0.7499       0.3896    1393.84590       0.4857       0.7513
   1425.08064       0.7541       0.4143    1393.83064       0.5037       0.6946
   1425.06538       0.7752       0.3592    1393.81538       0.4770       0.7554
   1425.05012       0.7854       0.4373    1393.80012       0.4845       0.6950
   1425.03486       0.7204       0.4354    1393.78486       0.4407       0.7125
   1425.01960       0.7465       0.4161    1393.76960       0.4846       0.7234
   1425.00435       0.7531       0.4154    1393.75435       0.4804       0.6756
   1424.98909       0.7636       0.4682    1393.73909       0.5278       0.6850
   1424.97383       0.7315       0.4676    1393.72383       0.4807       0.6822
   1424.95857       0.7624       0.3958    1393.70857       0.4837       0.7131
   1424.94331       0.6656       0.4519    1393.69331       0.4721       0.7045
   1424.92805       0.7246       0.4450    1393.67805       0.4498       0.6680
   1424.91279       0.7117       0.3760    1393.66279       0.4532       0.6798
   1424.89753       0.7508       0.4655    1393.64753       0.4488       0.6608
   1424.88228       0.6949       0.4789    1393.63228       0.4841       0.7052
   1424.86702       0.7235       0.4432    1393.61702       0.4787       0.6836
   1424.85176       0.7250       0.4834    1393.60176       0.5044       0.6983
   1424.83650       0.7341       0.4656    1393.58650       0.5256       0.6920
   1424.82124       0.7520       0.4722    1393.57124       0.4965       0.6858
   1424.80598       0.7484       0.4762    1393.55598       0.4457       0.6587
   1424.79072       0.7318       0.4209    1393.54072       0.4655       0.6516
   1424.77546       0.7254       0.5165    1393.52546       0.4637       0.6691
   1424.76021       0.7118       0.4818    1393.51021       0.4697       0.7077
   1424.74495       0.7643       0.4946    1393.49495       0.4997       0.6721
   1424.72969       0.6793       0.4897    1393.47969       0.4464       0.6249
   1424.71443       0.7357       0.5000    1393.46443       0.4630       0.6227
   1424.69917       0.7789       0.5252    1393.44917       0.4793       0.7379
   1424.68391       0.6886       0.4390    1393.43391       0.4663       0.7082
   1424.66865       0.7590       0.5247    1393.41865       0.5155       0.6582
   1424.65339       0.7429       0.5755    1393.40339       0.4638       0.6802
   1424.63813       0.7226       0.4617    1393.38813       0.4934       0.6407
   1424.62288       0.6839       0.5443    1393.37288       0.4967       0.6752
   1424.60762       0.7204       0.5365    1393.35762       0.5101       0.6414
   1424.59236       0.7495       0.5507    1393.34236       0.4580       0.6586
   1424.57710       0.7237       0.5392    1393.32710       0.4947       0.5901
   1424.56184       0.7099       0.5998    1393.31184       0.5281       0.6603
   1424.54658       0.7014       0.5550    1393.29658       0.5129       0.6427
   1424.53132       0.7495       0.6117    1393.28132       0.4678       0.6739
   1424.51606       0.6965       0.5170    1393.26606       0.5139       0.6538
   1424.50081       0.7144       0.5119    1393.25081       0.4749       0.6495
   1424.48555       0.7159       0.5274    1393.23555       0.4924       0.6408
   1424.47029       0.7263       0.5610    1393.22029       0.4946       0.6364
   1424.45503       0.7014       0.5709    1393.20503       0.4829       0.6421
   1424.43977       0.7173       0.5086    1393.18977       0.4711       0.6045
   1424.42451       0.7377       0.5668    1393.17451       0.4456       0.6756
   1424.40925       0.7062       0.6207    1393.15925       0.4983       0.6604
   1424.39399       0.7143       0.6030    1393.14399       0.4192       0.6763
   1424.37874       0.7123       0.6152    1393.12874       0.5101       0.6357
   1424.36348       0.7186       0.5603    1393.11348       0.4767       0.6875
   1424.34822       0.7426       0.5750    1393.09822       0.5049       0.6849
   1424.33296       0.7139       0.6027    1393.08296       0.4545       0.6095
   1424.31770       0.7217       0.6009    1393.06770       0.4669       0.6243
   1424.30244       0.7488       0.6370    1393.05244       0.4735       0.6238
   1424.28718       0.7155       0.6340    1393.03718       0.4981       0.6378
   1424.27192       0.6903       0.6614    1393.02192       0.4898       0.6728
   1424.25667       0.6394       0.6378    1393.00667       0.4727       0.6686
   1424.24141       0.7286       0.5913    1392.99141       0.5192       0.6413
   1424.22615       0.6911       0.5680    1392.97615       0.5201       0.6901
   1424.21089       0.6870       0.5745    1392.96089       0.5168       0.6411
   1424.19563       0.6908       0.6612    1392.94563       0.4644       0.6489
   1424.18037       0.6990       0.6501    1392.93037       0.5087       0.6746
   1424.16511       0.7155       0.6878    1392.91511       0.4707       0.6336
   1424.14985       0.6760       0.6207    1392.89985       0.4816       0.6736
   1424.13459       0.7221       0.6664    1392.88459       0.4880       0.6502
   1424.11934       0.7293       0.6391    1392.86934       0.4897       0.6602
   1424.10408       0.6739       0.6724    1392.85408       0.4567       0.6299
   1424.08882       0.6738       0.6148    1392.83882       0.5104       0.6329
   1424.07356       0.7065       0.6141    1392.82356       0.4656       0.6561
   1424.05830       0.7193       0.6373    1392.80830       0.4941       0.6598
   1424.04304       0.6906       0.6990    1392.79304       0.5086       0.5750
   1424.02778       0.6982       0.6657    1392.77778       0.4919       0.6321
   1424.01252       0.6500       0.6405    1392.76252       0.4845       0.6461
   1423.99727       0.6933       0.6891    1392.74727       0.4615       0.6280
   1423.98201       0.7128       0.6703    1392.73201       0.5011       0.6653
   1423.96675       0.7106       0.6657    1392.71675       0.4874       0.6491
   1423.95149       0.6435       0.6627    1392.70149       0.5414       0.6799
   1423.93623       0.6817       0.6870    1392.68623       0.5008       0.6549
   1423.92097       0.6767       0.6932    1392.67097       0.5013       0.6751
   1423.90571       0.6452       0.7030    1392.65571       0.5240       0.6641
   1423.89045       0.7171       0.7154    1392.64045       0.5068       0.7164
   1423.87520       0.6897       0.6953    1392.62520       0.4831       0.6929
   1423.85994       0.6792       0.7099    1392.60994       0.5205       0.6158
   1423.84468       0.7029       0.6813    1392.59468       0.5010       0.6432
   1423.82942       0.6676       0.7480    1392.57942       0.5218       0.6627
   1423.81416       0.7152       0.6818    1392.56416       0.5110       0.6074
   1423.79890       0.6790       0.6993    1392.54890       0.5382       0.6598
   1423.78364       0.6722       0.6936    1392.53364       0.5200       0.6045
   1423.76838       0.6666       0.7164    1392.51838       0.4772       0.6222
   1423.75312       0.6711       0.7782    1392.50312       0.5030       0.6592
   1423.73787       0.6771       0.7264    1392.48787       0.4979       0.5933
   1423.72261       0.7172       0.7492    1392.47261       0.4942       0.6271
   1423.70735       0.7025       0.7301    1392.45735       0.5354       0.6502
   1423.69209       0.7105       0.7722    1392.44209       0.4972       0.6553
   1423.67683       0.6731       0.7801    1392.42683       0.5234       0.6452
   1423.66157       0.6911       0.7769    1392.41157       0.5177       0.6164
   1423.64631       0.6848       0.7317    1392.39631       0.5024       0.6544
   1423.63105       0.6752       0.7542    1392.38105       0.5031       0.6504
   1423.61580       0.6640       0.7940    1392.36580       0.5362       0.6695
   1423.60054       0.6777       0.7533    1392.35054       0.5266       0.6791
   1423.58528       0.7258       0.7052    1392.33528       0.5135       0.6766
   1423.57002       0.6862       0.8075    1392.32002       0.5656       0.6773
   1423.55476       0.6671       0.7862    1392.30476       0.5062       0.6126
   1423.53950       0.7112       0.7819    1392.28950       0.4969       0.6463
   1423.52424       0.6682       0.7862    1392.27424       0.5229       0.5953
   1423.50898       0.7256       0.8184    1392.25898       0.5633       0.6585
   1423.49373       0.6845       0.8633    1392.24373       0.5455       0.6414
   1423.47847       0.6576       0.7897    1392.22847       0.5374       0.6800
   1423.46321       0.6772       0.8399    1392.21321       0.5546       0.6299
   1423.44795       0.6628       0.7950    1392.19795       0.5003       0.6476
   1423.43269       0.6997       0.8614    1392.18269       0.5596       0.6357
   1423.41743       0.6667       0.8027    1392.16743       0.5566       0.6395
   1423.40217       0.6726       0.7731    1392.15217       0.5199       0.6603
   1423.38691       0.6881       0.8535    1392.13691       0.5499       0.6262
   1423.37166       0.6756       0.8251    1392.12166       0.4888       0.6505
   1423.35640       0.7008       0.8436    1392.10640       0.5198       0.5979
   1423.34114       0.6440       0.9165    1392.09114       0.5298       0.6958
   1423.32588       0.6734       0.8732    1392.07588       0.5679       0.6415
   1423.31062       0.7275       0.8801    1392.06062       0.5673       0.6503
   1423.29536       0.7016       0.9500    1392.04536       0.5657       0.6340
   1423.28010       0.6767       0.8760    1392.03010       0.5725       0.6754
   1423.26484       0.6794       0.8768    1392.01484       0.6020       0.6659
   1423.24958       0.6842       0.9404    1391.99958       0.5721       0.6682
   1423.23433       0.6469       0.9390    1391.98433       0.5910       0.6402
   1423.21907       0.6624       0.9385    1391.96907       0.5921       0.6882
   1423.20381       0.6722       0.9170    1391.95381       0.6173       0.6441
   1423.18855       0.6514       0.9324    1391.93855       0.5844       0.6029
   1423.17329       0.6589       0.8827    1391.92329       0.5690       0.6452
   1423.15803       0.6711       0.9078    1391.90803       0.5920       0.6240
   1423.14277       0.6747       0.8954    1391.89277       0.5703       0.5756
   1423.12751       0.6686       0.8916    1391.87751       0.6042       0.6047
   1423.11226       0.6832       0.9719    1391.86226       0.5622       0.6337
   1423.09700       0.6888       0.9223    1391.84700       0.6135       0.6270
   1423.08174       0.7139       0.9717    1391.83174       0.6369       0.6478
   1423.06648       0.7174       0.9644    1391.81648       0.6204       0.6399
   1423.05122       0.6886       1.0209    1391.80122       0.6469       0.6025
   1423.03596       0.7038       0.9902    1391.78596       0.6618       0.5997
   1423.02070       0.7171       0.9852    1391.77070       0.6180       0.6038
   1423.00544       0.7379       1.0315    1391.75544       0.5845       0.5888
   1422.99019       0.7103       1.0037    1391.74019       0.6786       0.6245
   1422.97493       0.7420       1.0791    1391.72493       0.6779       0.6440
   1422.95967       0.7721       1.0979    1391.70967       0.6384       0.6563
   1422.94441       0.8123       1.0952    1391.69441       0.6130       0.6144
   1422.92915       0.7950       1.1147    1391.67915       0.5943       0.6561
   1422.91389       0.8614       1.2317    1391.66389       0.6326       0.6424
   1422.89863       0.8210       1.2051    1391.64863       0.6518       0.6053
   1422.88337       0.7983       1.2489    1391.63337       0.6322       0.6392
   1422.86812       0.8595       1.2017    1391.61812       0.6902       0.6015
   1422.85286       0.8605       1.2834    1391.60286       0.6422       0.6096
   1422.83760       0.9033       1.3451    1391.58760       0.6752       0.6016
   1422.82234       0.9009       1.2979    1391.57234       0.6401       0.6473
   1422.80708       0.9078       1.3392    1391.55708       0.6904       0.6008
   1422.79182       0.9333       1.3017    1391.54182       0.6819       0.5652
   1422.77656       0.9851       1.3446    1391.52656       0.6371       0.5669
   1422.76130       0.9696       1.4794    1391.51130       0.6881       0.5659
   1422.74604       0.9723       1.3806    1391.49604       0.7190       0.5685
   1422.73079       0.9989       1.4188    1391.48079       0.7349       0.5999
   1422.71553       1.0161       1.5054    1391.46553       0.7296       0.5721
   1422.70027       1.0039       1.3904    1391.45027       0.7219       0.5963
   1422.68501       1.0167       1.3865    1391.43501       0.6760       0.5962
   1422.66975       0.9884       1.4250    1391.41975       0.7209       0.5973
   1422.65449       0.9901       1.4566    1391.40449       0.7662       0.5547
   1422.63923       0.9437       1.3415    1391.38923       0.7082       0.6003
   1422.62397       0.9485       1.4007    1391.37397       0.7329       0.5548
   1422.60872       0.9721       1.4468    1391.35872       0.7270       0.5996
   1422.59346       0.9903       1.4657    1391.34346       0.7198       0.5561
   1422.57820       0.9328       1.4720    1391.32820       0.7763       0.6307
   1422.56294       0.9657       1.4278    1391.31294       0.7845       0.5643
   1422.54768       1.0012       1.4350    1391.29768       0.7362       0.6125
   1422.53242       1.0655       1.4676    1391.28242       0.7704       0.6039
   1422.51716       1.0358       1.5425    1391.26716       0.7877       0.5761
   1422.50190       1.0525       1.6067    1391.25190       0.7460       0.5976
   1422.48665       1.0968       1.6199    1391.23665       0.7250       0.5718
   1422.47139       1.1098       1.5798    1391.22139       0.7580       0.5635
   1422.45613       1.1335       1.6454    1391.20613       0.7506       0.5805
   1422.44087       1.1884       1.7268    1391.19087       0.7755       0.6069
   1422.42561       1.1947       1.7442    1391.17561       0.7412       0.5812
   1422.41035       1.2464       1.7377    1391.16035       0.7682       0.5916
   1422.39509       1.2227       1.7266    1391.14509       0.7702       0.5818
   1422.37983       1.2134       1.7714    1391.12983       0.7487       0.5605
   1422.36458       1.2513       1.8375    1391.11458       0.8040       0.5962
   1422.34932       1.3164       1.8924    1391.09932       0.8234       0.6083
   1422.33406       1.3188       1.9666    1391.08406       0.7808       0.6041
   1422.31880       1.3802       1.9872    1391.06880       0.7850       0.5678
   1422.30354       1.4163       1.9730    1391.05354       0.7033       0.6030
   1422.28828       1.4121       2.0396    1391.03828       0.8295       0.5474
   1422.27302       1.4696       2.1532    1391.02302       0.7584       0.5436
   1422.25776       1.5140       2.1916    1391.00776       0.8377       0.5342
   1422.24250       1.5705       2.2257    1390.99250       0.8621       0.4965
   1422.22725       1.6166       2.3655    1390.97725       0.8301       0.6072
   1422.21199       1.6856       2.4485    1390.96199       0.8576       0.5400
   1422.19673       1.7276       2.4402    1390.94673       0.7736       0.5712
   1422.18147       1.7630       2.5204    1390.93147       0.7950       0.5574
   1422.16621       1.8204       2.5542    1390.91621       0.8404       0.5618
   1422.15095       1.8542       2.6050    1390.90095       0.8548       0.5618
   1422.13569       1.8797       2.6448    1390.88569       0.8323       0.5749
   1422.12043       1.9767       2.8140    1390.87043       0.8841       0.5550
   1422.10518       2.0260       2.8692    1390.85518       0.8371       0.5609
   1422.08992       2.0965       2.9306    1390.83992       0.8571       0.5820
   1422.07466       2.0927       2.9882    1390.82466       0.9104       0.5364
   1422.05940       2.1875       3.0506    1390.80940       0.8619       0.5424
   1422.04414       2.2697       3.1975    1390.79414       0.8694       0.5441
   1422.02888       2.3020       3.1825    1390.77888       0.9396       0.5557
   1422.01362       2.3294       3.2590    1390.76362       0.8933       0.5406
   1421.99836       2.3748       3.3481    1390.74836       0.8918       0.5175
   1421.98311       2.3984       3.3971    1390.73311       0.9153       0.5313
   1421.96785       2.4487       3.4883    1390.71785       0.9012       0.5320
   1421.95259       2.5688       3.4986    1390.70259       0.9655       0.5340
   1421.93733       2.6230       3.6833    1390.68733       0.8614       0.5283
   1421.92207       2.7445       3.8256    1390.67207       0.9091       0.5350
   1421.90681       2.8087       3.8944    1390.65681       0.8952       0.5770
   1421.89155       2.8000       4.0206    1390.64155       0.8880       0.5520
   1421.87629       2.9176       3.9907    1390.62629       0.9917       0.5284
   1421.86104       2.9862       4.1360    1390.61104       1.0000       0.5655
   1421.84578       3.0791       4.2475    1390.59578       0.9396       0.5808
   1421.83052       3.1293       4.3725    1390.58052       0.9522       0.4995
   1421.81526       3.2413       4.4452    1390.56526       0.8825       0.4720
   1421.80000       3.2110       4.4550    1390.55000       0.9044       0.5056
   1421.78474       3.1580       4.4490    1390.53474       0.9263       0.5394
   1421.76948       3.2208       4.4509    1390.51948       0.9459       0.4979
   1421.75422       3.1791       4.3365    1390.50422       0.9754       0.4995
   1421.73896       3.1765       4.3858    1390.48896       0.9675       0.5062
   1421.72371       3.1722       4.3369    1390.47371       0.9513       0.5109
   1421.70845       3.1425       4.3348    1390.45845       0.9566       0.4796
   1421.69319       3.1085       4.3014    1390.44319       0.9427       0.4564
   1421.67793       3.0889       4.2617    1390.42793       0.9698       0.5392
   1421.66267       3.0684       4.2558    1390.41267       0.9489       0.5347
   1421.64741       3.1088       4.3294    1390.39741       0.9746       0.4827
   1421.63215       3.1141       4.2525    1390.38215       0.9501       0.4700
   1421.61689       3.1493       4.3185    1390.36689       0.9348       0.4565
   1421.60164       3.1841       4.3497    1390.35164       0.9663       0.4788
   1421.58638       3.1939       4.4412    1390.33638       0.9825       0.4885
   1421.57112       3.1128       4.3635    1390.32112       0.9468       0.4857
   1421.55586       3.0622       4.2325    1390.30586       0.9448       0.4724
   1421.54060       2.9574       4.1185    1390.29060       1.0502       0.5026
   1421.52534       2.9424       4.0578    1390.27534       0.9935       0.5023
   1421.51008       2.8887       4.0142    1390.26008       1.0279       0.4957
   1421.49482       2.8058       3.8799    1390.24482       1.0075       0.4660
   1421.47957       2.6476       3.6975    1390.22957       1.0030       0.4975
   1421.46431       2.5602       3.6367    1390.21431       0.9819       0.4807
   1421.44905       2.5117       3.5665    1390.19905       0.9806       0.4578
   1421.43379       2.4814       3.4642    1390.18379       1.0174       0.4715
   1421.41853       2.3811       3.4068    1390.16853       1.0423       0.5031
   1421.40327       2.3504       3.2400    1390.15327       0.9972       0.4695
   1421.38801       2.2803       3.2074    1390.13801       0.9964       0.4753
   1421.37275       2.1750       2.9716    1390.12275       0.9807       0.4885
   1421.35750       2.0765       2.9329    1390.10750       1.0123       0.4739
   1421.34224       2.0317       2.8920    1390.09224       1.0243       0.4695
   1421.32698       1.9758       2.8326    1390.07698       1.0044       0.4781
   1421.31172       1.8936       2.8374    1390.06172       1.0592       0.4586
   1421.29646       1.8818       2.7592    1390.04646       1.0796       0.4683
   1421.28120       1.8547       2.6989    1390.03120       0.9923       0.4923
   1421.26594       1.8020       2.5922    1390.01594       0.9992       0.4631
   1421.25068       1.7689       2.5533    1390.00068       1.0610       0.4373
   1421.23542       1.7344       2.5324    1389.98542       0.9854       0.4287
   1421.22017       1.7053       2.4241    1389.97017       1.0385       0.4031
   1421.20491       1.6678       2.4173    1389.95491       1.0506       0.3699
   1421.18965       1.5898       2.3047    1389.93965       1.0632       0.4113
   1421.17439       1.5015       2.2436    1389.92439       1.1079       0.4745
   1421.15913       1.5578       2.1885    1389.90913       1.0738       0.4987
   1421.14387       1.4787       2.1282    1389.89387       1.0596       0.4714
   1421.12861       1.4069       2.0856    1389.87861       1.0475       0.4402
   1421.11335       1.3824       2.0064    1389.86335       1.0755       0.3512
   1421.09810       1.3566       1.9984    1389.84810       1.0741       0.4800
   1421.08284       1.3238       2.0056    1389.83284       1.0383       0.4603
   1421.06758       1.3382       1.9560    1389.81758       1.1066       0.4052
   1421.05232       1.2767       1.8757    1389.80232       1.0995       0.4148
   1421.03706       1.2622       1.8732    1389.78706       1.0803       0.4104
   1421.02180       1.2886       1.7931    1389.77180       1.0428       0.3904
   1421.00654       1.2565       1.7709    1389.75654       1.0607       0.3740
   1420.99128       1.2657       1.8075    1389.74128       1.1130       0.4378
   1420.97603       1.2201       1.7763    1389.72603       1.0749       0.3968
   1420.96077       1.2473       1.7789    1389.71077       1.0525       0.3974
   1420.94551       1.2306       1.7442    1389.69551       1.1161       0.4098
   1420.93025       1.2291       1.7166    1389.68025       1.0714       0.3799
   1420.91499       1.2010       1.7008    1389.66499       1.0866       0.3577
   1420.89973       1.1499       1.7256    1389.64973       1.0897       0.3041
   1420.88447       1.1779       1.7776    1389.63447       1.1041       0.3666
   1420.86921       1.2295       1.7047    1389.61921       1.1092       0.3952
   1420.85396       1.2304       1.7513    1389.60396       1.1213       0.3495
   1420.83870       1.1914       1.7442    1389.58870       1.0885       0.3927
   1420.82344       1.2298       1.7722    1389.57344       1.0579       0.3817
   1420.80818       1.2564       1.8155    1389.55818       1.0711       0.3520
   1420.79292       1.2572       1.8332    1389.54292       1.0445       0.4119
   1420.77766       1.2612       1.7821    1389.52766       1.1477       0.4152
   1420.76240       1.2452       1.7736    1389.51240       1.1331       0.3500
   1420.74714       1.1791       1.7332    1389.49714       1.0520       0.3874
   1420.73188       1.1848       1.8321    1389.48188       1.1562       0.3822
   1420.71663       1.1731       1.7269    1389.46663       1.0578       0.3146
   1420.70137       1.1286       1.7180    1389.45137       1.1462       0.3805
   1420.68611       1.1462       1.6728    1389.43611       1.0801       0.3132
   1420.67085       1.1331       1.5713    1389.42085       1.1242       0.3287
   1420.65559       1.0496       1.6003    1389.40559       1.1424       0.3111
   1420.64033       1.0094       1.4912    1389.39033       1.0161       0.3490
   1420.62507       0.8251       1.2283    1389.37507       1.1073       0.3474
   1420.60981       0.4630       0.8354    1389.35981       1.0496       0.3715
   1420.59456       0.4107       0.6454    1389.34456       1.0970       0.3064
   1420.57930       0.6036       0.9197    1389.32930       1.0428       0.3737
   1420.56404       0.8376       1.2613    1389.31404       1.0855       0.3542
   1420.54878       1.1131       1.6072    1389.29878       1.1246       0.3582
   1420.53352       1.4594       2.0003    1389.28352       1.1362       0.2766
   1420.51826       1.8940       2.7047    1389.26826       1.0829       0.3253
   1420.50300       2.5573       3.5205    1389.25300       1.1458       0.3495
   1420.48774       2.4246       3.3513    1389.23774       1.1289       0.3417
   1420.47249       2.1809       2.9972    1389.22249       1.1986       0.3602
   1420.45723       1.9941       2.7822    1389.20723       1.1128       0.3288
   1420.44197       1.7427       2.4614    1389.19197       1.0616       0.3306
   1420.42671       1.9028       2.6470    1389.17671       1.1105       0.2536
   1420.41145       1.3247       1.8780    1389.16145       1.1313       0.3633
   1420.39619       0.9760       1.4807    1389.14619       1.1134       0.3137
   1420.38093       0.9601       1.3881    1389.13093       1.1613       0.3305
   1420.36567       1.0908       1.5576    1389.11567       1.1134       0.3177
   1420.35042       1.4603       2.0062    1389.10042       1.1248       0.3016
   1420.33516       1.8561       2.5227    1389.08516       1.1153       0.2955
   1420.31990       4.5673       6.1166    1389.06990       1.1084       0.2923
   1420.30464       5.7823       7.6566    1389.05464       1.1553       0.3453
   1420.28938       1.4270       1.9275    1389.03938       1.0909       0.3057
   1420.27412      -0.6615      -0.7694    1389.02412       1.1488       0.3229
   1420.25886       0.4368       0.6467    1389.00886       1.1867       0.3658
   1420.24360       0.6837       0.9787    1388.99360       1.1877       0.3335
   1420.22834       0.7449       1.0568    1388.97834       1.1522       0.3354
   1420.21309       0.7944       1.1921    1388.96309       1.1254       0.3437
   1420.19783       0.8668       1.2422    1388.94783       1.0836       0.2918
   1420.18257       0.8607       1.2648    1388.93257       1.1312       0.3075
   1420.16731       0.8853       1.2750    1388.91731       1.0893       0.3140
   1420.15205       0.8769       1.2320    1388.90205       1.1715       0.2894
   1420.13679       0.8744       1.2924    1388.88679       1.1615       0.2651
   1420.12153       0.8705       1.3013    1388.87153       1.1421       0.3497
   1420.10627       0.9103       1.2862    1388.85627       1.1186       0.3145
   1420.09102       0.8782       1.2945    1388.84102       1.1476       0.2881
   1420.07576       0.9162       1.2967    1388.82576       1.1112       0.2740
   1420.06050       0.9110       1.2411    1388.81050       1.1148       0.2850
   1420.04524       0.9343       1.2970    1388.79524       1.1377       0.2867
   1420.02998       0.9028       1.2877    1388.77998       1.1136       0.3516
   1420.01472       0.9487       1.2467    1388.76472       1.1283       0.3495
   1419.99946       0.9057       1.3533    1388.74946       1.1052       0.3156
   1419.98420       0.8737       1.3375    1388.73420       1.0713       0.3010
   1419.96895       0.9092       1.2737    1388.71895       1.1492       0.3421
   1419.95369       0.8982       1.3022    1388.70369       1.0925       0.2830
   1419.93843       0.8790       1.2981    1388.68843       1.1045       0.2995
   1419.92317       0.8698       1.2626    1388.67317       1.0855       0.2406
   1419.90791       0.9127       1.2991    1388.65791       1.1295       0.2750
   1419.89265       0.8874       1.2300    1388.64265       1.0687       0.3181
   1419.87739       0.9091       1.2914    1388.62739       1.0947       0.2988
   1419.86213       0.9245       1.2713    1388.61213       1.1000       0.2818
   1419.84687       0.8619       1.2227    1388.59687       1.1264       0.2683
   1419.83162       0.8605       1.3023    1388.58162       1.0728       0.3265
   1419.81636       0.9182       1.2121    1388.56636       1.0977       0.3118
   1419.80110       0.9151       1.2016    1388.55110       1.1514       0.2651
   1419.78584       0.8687       1.2189    1388.53584       1.1064       0.3660
   1419.77058       0.8980       1.2042    1388.52058       1.1170       0.3254
   1419.75532       0.8543       1.2286    1388.50532       1.1188       0.2538
   1419.74006       0.8823       1.2528    1388.49006       1.0580       0.3276
   1419.72480       0.8959       1.2799    1388.47480       1.0733       0.3504
   1419.70955       0.9060       1.2421    1388.45955       1.1181       0.3823
   1419.69429       0.9324       1.2114    1388.44429       1.1365       0.3235
   1419.67903       0.9417       1.2345    1388.42903       1.1136       0.3228
   1419.66377       0.9079       1.2386    1388.41377       1.1046       0.3604
   1419.64851       0.9359       1.2652    1388.39851       1.1031       0.3007
   1419.63325       0.9215       1.2669    1388.38325       1.1139       0.3218
   1419.61799       0.9135       1.2278    1388.36799       1.0755       0.3621
   1419.60273       0.8948       1.2254    1388.35273       1.0483       0.3584
   1419.58748       0.9379       1.2320    1388.33748       1.0805       0.3227
   1419.57222       0.9004       1.2366    1388.32222       1.1372       0.3832
   1419.55696       0.8992       1.2492    1388.30696       1.1152       0.3822
   1419.54170       0.8908       1.1825    1388.29170       1.1406       0.3712
   1419.52644       0.8761       1.2388    1388.27644       1.0760       0.3701
   1419.51118       0.9329       1.2757    1388.26118       1.0770       0.3180
   1419.49592       0.9151       1.2356    1388.24592       1.1020       0.3369
   1419.48066       0.9265       1.2128    1388.23066       1.0691       0.3913
   1419.46541       0.9122       1.2182    1388.21541       1.0920       0.4079
   1419.45015       0.9185       1.2575    1388.20015       1.1591       0.3839
   1419.43489       0.9327       1.1993    1388.18489       1.1035       0.3384
   1419.41963       0.9248       1.2292    1388.16963       1.1260       0.3608
   1419.40437       0.9196       1.2188    1388.15437       1.0826       0.3798
   1419.38911       0.8675       1.1527    1388.13911       1.1297       0.3529
   1419.37385       0.9423       1.2079    1388.12385       1.0602       0.4266
   1419.35859       0.9424       1.2423    1388.10859       1.0933       0.3985
   1419.34333       0.8903       1.1944    1388.09333       1.1142       0.4365
   1419.32808       0.8988       1.1899    1388.07808       1.0819       0.4064
   1419.31282       0.9262       1.2428    1388.06282       1.0818       0.3490
   1419.29756       0.9205       1.2411    1388.04756       1.1338       0.4851
   1419.28230       0.8607       1.2030    1388.03230       1.0782       0.3806
   1419.26704       0.9186       1.1600    1388.01704       1.1282       0.4298
   1419.25178       0.9249       1.1668    1388.00178       1.0798       0.4269
   1419.23652       0.9019       1.2084    1387.98652       1.0162       0.4099
   1419.22126       0.8775       1.1357    1387.97126       1.0511       0.4045
   1419.20601       0.9259       1.1846    1387.95601       1.0562       0.4227
   1419.19075       0.8804       1.2110    1387.94075       1.0508       0.3989
   1419.17549       0.9035       1.1782    1387.92549       1.0493       0.4392
   1419.16023       0.8826       1.2272    1387.91023       1.0377       0.4567
   1419.14497       0.9026       1.1998    1387.89497       1.0684       0.4747
   1419.12971       0.9027       1.2038    1387.87971       1.0756       0.4772
   1419.11445       0.8805       1.2203    1387.86445       1.0358       0.4128
   1419.09919       0.9082       1.2554    1387.84919       1.0255       0.3983
   1419.08394       0.9490       1.2119    1387.83394       1.0845       0.4244
   1419.06868       0.9557       1.2108    1387.81868       1.1029       0.3916
   1419.05342       0.9192       1.1622    1387.80342       1.0546       0.4657
   1419.03816       0.8928       1.1834    1387.78816       1.0576       0.4317
   1419.02290       0.8989       1.1721    1387.77290       1.0623       0.4410
   1419.00764       0.8754       1.2219    1387.75764       1.0402       0.4246
   1418.99238       0.8697       1.2044    1387.74238       1.0205       0.4155
   1418.97712       0.8906       1.1955    1387.72712       1.0004       0.4479
   1418.96187       0.8873       1.2321    1387.71187       1.0218       0.4743
   1418.94661       0.9049       1.2204    1387.69661       1.0730       0.4392
   1418.93135       0.9120       1.2109    1387.68135       1.0305       0.4481
   1418.91609       0.9174       1.1967    1387.66609       0.9871       0.4800
   1418.90083       0.9122       1.1993    1387.65083       1.0468       0.4613
   1418.88557       0.8812       1.1237    1387.63557       1.0646       0.4390
   1418.87031       0.9290       1.1966    1387.62031       1.0448       0.5188
   1418.85505       0.9115       1.1828    1387.60505       1.0682       0.4612
   1418.83979       0.9173       1.1570    1387.58979       0.9901       0.4800
   1418.82454       0.9072       1.2074    1387.57454       1.0046       0.4636
   1418.80928       0.8962       1.2219    1387.55928       1.0267       0.4841
   1418.79402       0.9093       1.2358    1387.54402       0.9601       0.4634
   1418.77876       0.9161       1.2436    1387.52876       1.0283       0.4928
   1418.76350       0.8900       1.1898    1387.51350       1.0312       0.4526
   1418.74824       0.9240       1.2436    1387.49824       1.0590       0.5401
   1418.73298       0.8693       1.1931    1387.48298       0.9744       0.4881
   1418.71772       0.8859       1.2408    1387.46772       1.0595       0.5300
   1418.70247       0.9150       1.1866    1387.45247       1.0536       0.5075
   1418.68721       0.8816       1.1423    1387.43721       0.9876       0.4921
   1418.67195       0.8739       1.2507    1387.42195       1.0400       0.5304
   1418.65669       0.8961       1.1605    1387.40669       1.0058       0.5308
   1418.64143       0.8928       1.1717    1387.39143       1.0289       0.5414
   1418.62617       0.9170       1.1898    1387.37617       1.0421       0.5436
   1418.61091       0.9024       1.1844    1387.36091       1.0278       0.5577
   1418.59565       0.9350       1.2176    1387.34565       1.0337       0.5613
   1418.58040       0.8996       1.1986    1387.33040       1.0428       0.5492
   1418.56514       0.9205       1.1691    1387.31514       0.9463       0.5667
   1418.54988       0.8518       1.2198    1387.29988       1.0065       0.5344
   1418.53462       0.8774       1.1686    1387.28462       1.0079       0.5854
   1418.51936       0.8294       1.2383    1387.26936       1.0220       0.5157
   1418.50410       0.8446       1.2525    1387.25410       0.9633       0.5443
   1418.48884       0.8461       1.1881    1387.23884       1.0419       0.5823
   1418.47358       0.9209       1.1975    1387.22358       1.0944       0.5574
   1418.45833       0.8643       1.1841    1387.20833       1.0145       0.5819
   1418.44307       0.8958       1.2046    1387.19307       1.0268       0.5866
   1418.42781       0.8595       1.1779    1387.17781       0.9790       0.6033
   1418.41255       0.8589       1.2292    1387.16255       1.0040       0.5827
   1418.39729       0.8590       1.2339    1387.14729       1.0309       0.6214
   1418.38203       0.8808       1.1498    1387.13203       1.0191       0.5625
   1418.36677       0.8791       1.1778    1387.11677       1.0435       0.6314
   1418.35151       0.8822       1.1625    1387.10151       1.0374       0.5957
   1418.33625       0.8577       1.1149    1387.08625       1.0346       0.5896
   1418.32100       0.9190       1.1551    1387.07100       0.9741       0.5776
   1418.30574       0.8618       1.2490    1387.05574       1.0172       0.6405
   1418.29048       0.8784       1.1687    1387.04048       1.0097       0.6325
   1418.27522       0.8945       1.2108    1387.02522       1.0438       0.6121
   1418.25996       0.9212       1.1401    1387.00996       1.0089       0.6201
   1418.24470       0.9089       1.1947    1386.99470       0.9885       0.6096
   1418.22944       0.8992       1.1948    1386.97944       1.0161       0.6350
   1418.21418       0.9108       1.1826    1386.96418       0.9257       0.6313
   1418.19893       0.8641       1.1864    1386.94893       0.9817       0.6283
   1418.18367       0.8768       1.1848    1386.93367       0.9147       0.6125
   1418.16841       0.9142       1.1718    1386.91841       0.9795       0.5817
   1418.15315       0.8875       1.1942    1386.90315       0.9796       0.6239
   1418.13789       0.9108       1.1462    1386.88789       0.9860       0.6143
   1418.12263       0.8814       1.1744    1386.87263       0.9799       0.6431
   1418.10737       0.8794       1.2028    1386.85737       0.8967       0.6697
   1418.09211       0.9145       1.1690    1386.84211       0.9815       0.6232
   1418.07686       0.8881       1.1393    1386.82686       0.9505       0.6090
   1418.06160       0.8557       1.1257    1386.81160       0.9696       0.6560
   1418.04634       0.9115       1.0900    1386.79634       0.8901       0.6598
   1418.03108       0.8815       1.2047    1386.78108       0.9307       0.6782
   1418.01582       0.9250       1.1340    1386.76582       0.9092       0.6730
   1418.00056       0.8796       1.1418    1386.75056       0.9429       0.6971
   1417.98530       0.9397       1.1462    1386.73530       0.9378       0.6216
   1417.97004       0.9111       1.2032    1386.72004       0.9550       0.6828
   1417.95479       0.9364       1.1469    1386.70479       0.9407       0.6781
   1417.93953       0.8779       1.1421    1386.68953       0.9599       0.6262
   1417.92427       0.8718       1.1387    1386.67427       0.9360       0.6628
   1417.90901       0.8937       1.1644    1386.65901       0.8984       0.6562
   1417.89375       0.8669       1.1404    1386.64375       0.9272       0.7466
   1417.87849       0.8540       1.1546    1386.62849       0.9097       0.6399
   1417.86323       0.9017       1.1121    1386.61323       0.9590       0.6590
   1417.84797       0.8853       1.0822    1386.59797       0.9703       0.6481
   1417.83271       0.9050       1.1673    1386.58271       0.9765       0.6707
   1417.81746       0.8743       1.0775    1386.56746       0.8898       0.6116
   1417.80220       0.9295       1.1179    1386.55220       0.9504       0.6256
   1417.78694       0.8953       1.1271    1386.53694       0.8916       0.6750
   1417.77168       0.8771       1.1118    1386.52168       0.9078       0.6975
   1417.75642       0.9258       1.0968    1386.50642       0.9950       0.7278
   1417.74116       0.8702       1.0915    1386.49116       0.9627       0.6730
   1417.72590       0.8534       1.1240    1386.47590       0.9819       0.6638
   1417.71064       0.8752       1.1511    1386.46064       0.9617       0.6943
   1417.69539       0.8821       1.0733    1386.44539       0.9108       0.7506
   1417.68013       0.8960       1.1268    1386.43013       0.9418       0.7473
   1417.66487       0.9068       1.1064    1386.41487       0.9583       0.7393
   1417.64961       0.8918       1.0970    1386.39961       0.9921       0.7250
   1417.63435       0.9128       1.0943    1386.38435       0.9211       0.7094
   1417.61909       0.8745       1.0476    1386.36909       0.8892       0.7063
   1417.60383       0.9110       1.0461    1386.35383       0.9304       0.7809
   1417.58857       0.9015       0.9995    1386.33857       0.9042       0.7411
   1417.57332       0.9103       1.0640    1386.32332       0.9430       0.7434
   1417.55806       0.8763       1.0829    1386.30806       0.8797       0.7624
   1417.54280       0.8906       1.0256    1386.29280       0.8702       0.7447
   1417.52754       0.9021       1.0945    1386.27754       0.9170       0.7186
   1417.51228       0.8654       1.0792    1386.26228       0.9856       0.7947
   1417.49702       0.8433       1.0685    1386.24702       0.9158       0.7457
   1417.48176       0.8776       1.0746    1386.23176       0.9372       0.7458
   1417.46650       0.8600       1.0582    1386.21650       0.9067       0.7241
   1417.45125       0.8992       1.0289    1386.20125       0.9308       0.7412
   1417.43599       0.9078       1.0764    1386.18599       0.9759       0.7519
   1417.42073       0.9146       1.0195    1386.17073       0.9968       0.7610
   1417.40547       0.9114       1.0073    1386.15547       0.8985       0.7930
   1417.39021       0.8804       1.0129    1386.14021       0.9197       0.8093
   1417.37495       0.8816       0.9782    1386.12495       0.9255       0.7887
   1417.35969       0.9117       1.0016    1386.10969       0.9503       0.7960
   1417.34443       0.9059       1.0306    1386.09443       0.9312       0.8334
   1417.32917       0.8774       1.0091    1386.07917       0.9383       0.7505
   1417.31392       0.8922       0.9339    1386.06392       0.9752       0.8073
   1417.29866       0.8974       0.9621    1386.04866       0.9630       0.7947
   1417.28340       0.8625       1.0244    1386.03340       0.9268       0.7759
   1417.26814       0.9086       1.0429    1386.01814       0.8937       0.8374
   1417.25288       0.9043       1.0086    1386.00288       0.9034       0.7570
   1417.23762       0.9107       0.9828    1385.98762       0.9518       0.8115
   1417.22236       0.8634       0.9331    1385.97236       0.9139       0.8463
   1417.20710       0.9068       0.9552    1385.95710       0.8689       0.8165
   1417.19185       0.8960       0.9477    1385.94185       0.9396       0.8768
   1417.17659       0.8960       0.9211    1385.92659       0.9145       0.8136
   1417.16133       0.8999       0.8926    1385.91133       0.8549       0.7815
   1417.14607       0.9036       0.9602    1385.89607       0.9180       0.7701
   1417.13081       0.8873       0.9776    1385.88081       0.9314       0.7820
   1417.11555       0.8779       0.9385    1385.86555       0.9197       0.7957
   1417.10029       0.9231       0.9506    1385.85029       0.9579       0.8178
   1417.08503       0.8852       0.8917    1385.83503       0.9025       0.8294
   1417.06978       0.9239       0.9518    1385.81978       0.9425       0.8078
   1417.05452       0.9177       0.8703    1385.80452       0.8951       0.8055
   1417.03926       0.8649       0.8593    1385.78926       0.9224       0.7676
   1417.02400       0.9459       0.8983    1385.77400       0.8463       0.8513
   1417.00874       0.9376       0.9033    1385.75874       0.9361       0.8364
   1416.99348       0.8816       0.9368    1385.74348       0.8686       0.7843
   1416.97822       0.8850       0.8916    1385.72822       0.8926       0.8385
   1416.96296       0.9392       0.8984    1385.71296       0.9160       0.8452
   1416.94771       0.8848       0.9110    1385.69771       0.9363       0.8456
   1416.93245       0.9106       0.8997    1385.68245       0.8720       0.7819
   1416.91719       0.9004       0.9317    1385.66719       0.9038       0.7820
   1416.90193       0.9448       0.8992    1385.65193       0.9524       0.7723
   1416.88667       0.8900       0.8642    1385.63667       0.9226       0.8075
   1416.87141       0.9087       0.8829    1385.62141       0.9010       0.7940
   1416.85615       0.9206       0.8456    1385.60615       0.9343       0.8118
   1416.84089       0.9047       0.8218    1385.59089       0.8696       0.7886
   1416.82563       0.9524       0.9150    1385.57563       0.8403       0.8171
   1416.81038       0.8989       0.8438    1385.56038       0.8553       0.8725
   1416.79512       0.9047       0.8510    1385.54512       0.8982       0.8135
   1416.77986       0.9018       0.8572    1385.52986       0.9018       0.8223
   1416.76460       0.9092       0.8177    1385.51460       0.9470       0.8415
   1416.74934       0.8968       0.8313    1385.49934       0.8746       0.8581
   1416.73408       0.9637       0.8415    1385.48408       0.9238       0.8352
   1416.71882       0.9762       0.8710    1385.46882       0.9200       0.8239
   1416.70356       0.8670       0.8922    1385.45356       0.9225       0.8539
   1416.68831       0.9080       0.8279    1385.43831       0.8692       0.8527
   1416.67305       0.9080       0.7803    1385.42305       0.8738       0.8311
   1416.65779       0.8939       0.8976    1385.40779       0.9034       0.8321
   1416.64253       0.9017       0.8405    1385.39253       0.9260       0.8680
   1416.62727       0.9098       0.8114    1385.37727       0.9559       0.9183
   1416.61201       0.9100       0.9084    1385.36201       0.8729       0.8544
   1416.59675       0.9114       0.7801    1385.34675       0.9156       0.8114
   1416.58149       0.8412       0.8260    1385.33149       0.9278       0.8740
   1416.56624       0.9444       0.9105    1385.31624       0.9237       0.9027
   1416.55098       0.8691       0.8289    1385.30098       0.9012       0.8848
   1416.53572       0.9041       0.7700    1385.28572       0.8837       0.8846
   1416.52046       0.8758       0.8204    1385.27046       0.8724       0.8146
   1416.50520       0.9056       0.8798    1385.25520       0.9061       0.8710
   1416.48994       0.9683       0.7703    1385.23994       0.9300       0.8952
   1416.47468       0.9085       0.7617    1385.22468       0.9212       0.8783
   1416.45942       0.9125       0.8218    1385.20942       0.9185       0.8823
   1416.44417       0.8730       0.8349    1385.19417       0.9629       0.7934
   1416.42891       0.8903       0.8405    1385.17891       0.8888       0.8907
   1416.41365       0.9353       0.8094    1385.16365       0.9483       0.8852
   1416.39839       0.8966       0.8045    1385.14839       0.9065       0.8916
   1416.38313       0.9231       0.7868    1385.13313       0.8884       0.8856
   1416.36787       0.9516       0.8361    1385.11787       0.9123       0.8864
   1416.35261       0.9136       0.8146    1385.10261       0.9311       0.8619
   1416.33735       0.8957       0.8362    1385.08735       0.9190       0.9002
   1416.32209       0.9113       0.8392    1385.07209       0.9630       0.8988
   1416.30684       0.9153       0.8299    1385.05684       0.9273       0.8749
   1416.29158       0.8780       0.8023    1385.04158       0.9547       0.8962
   1416.27632       0.9024       0.7241    1385.02632       0.8636       0.8415
   1416.26106       0.8715       0.7353    1385.01106       0.8987       0.8880
   1416.24580       0.8825       0.8275    1384.99580       0.9457       0.8808
   1416.23054       0.9300       0.7672    1384.98054       0.9004       0.8667
   1416.21528       0.8902       0.7670    1384.96528       0.8699       0.8923
   1416.20002       0.9475       0.7693    1384.95002       0.9616       0.8298
   1416.18477       0.8801       0.8039    1384.93477       0.8658       0.8707
   1416.16951       0.8552       0.8079    1384.91951       0.9147       0.7842
   1416.15425       0.8778       0.7850    1384.90425       0.9149       0.8924
   1416.13899       0.8981       0.7430    1384.88899       0.8859       0.8521
   1416.12373       0.8842       0.7900    1384.87373       0.9325       0.8059
   1416.10847       0.8837       0.7458    1384.85847       0.9181       0.8836
   1416.09321       0.9562       0.7728    1384.84321       0.9402       0.8508
   1416.07795       0.8988       0.7783    1384.82795       0.8945       0.7900
   1416.06270       0.9468       0.7739    1384.81270       0.8718       0.8326
   1416.04744       0.9013       0.7554    1384.79744       0.9332       0.7893
   1416.03218       0.9658       0.7716    1384.78218       0.9253       0.8471
   1416.01692       0.9089       0.7640    1384.76692       0.8775       0.8124
   1416.00166       0.8586       0.7944    1384.75166       0.8723       0.8240
   1415.98640       0.8956       0.8168    1384.73640       0.9188       0.7871
   1415.97114       0.8773       0.7562    1384.72114       0.8880       0.8404
   1415.95588       0.8834       0.8114    1384.70588       0.9403       0.8459
   1415.94062       0.9017       0.7765    1384.69062       0.8708       0.8549
   1415.92537       0.8096       0.7721    1384.67537       0.9751       0.8069
   1415.91011       0.8697       0.7151    1384.66011       0.8580       0.8060
   1415.89485       0.8449       0.7072    1384.64485       0.8758       0.8006
   1415.87959       0.8860       0.7323    1384.62959       0.9219       0.7486
   1415.86433       0.8874       0.7577    1384.61433       0.9201       0.8306
   1415.84907       0.8685       0.7730    1384.59907       0.8905       0.8333
   1415.83381       0.8827       0.7661    1384.58381       0.9460       0.8542
   1415.81855       0.8897       0.8082    1384.56855       0.9417       0.7726
   1415.80330       0.8577       0.6766    1384.55330       0.8893       0.7538
   1415.78804       0.8730       0.7381    1384.53804       0.8847       0.8743
   1415.77278       0.8733       0.8369    1384.52278       0.8444       0.8466
   1415.75752       0.8604       0.8085    1384.50752       0.9605       0.8079
   1415.74226       0.8457       0.7754    1384.49226       0.8991       0.8335
   1415.72700       0.8297       0.7722    1384.47700       0.9143       0.7957
   1415.71174       0.8919       0.7491    1384.46174       0.9549       0.8991
   1415.69648       0.8227       0.7723    1384.44648       0.8815       0.8733
   1415.68123       0.8910       0.7919    1384.43123       0.8652       0.8401
   1415.66597       0.8603       0.7305    1384.41597       0.9300       0.8409
   1415.65071       0.8679       0.7174    1384.40071       0.9760       0.8522
   1415.63545       0.8900       0.7359    1384.38545       0.9656       0.8159
   1415.62019       0.9007       0.7598    1384.37019       0.9359       0.8569
   1415.60493       0.9167       0.7367    1384.35493       0.9653       0.7723
   1415.58967       0.8614       0.7896    1384.33967       0.9089       0.8183
   1415.57441       0.8613       0.7792    1384.32441       0.9190       0.8734
   1415.55916       0.8212       0.7515    1384.30916       0.9651       0.8734
   1415.54390       0.8428       0.7646    1384.29390       0.9461       0.8432
   1415.52864       0.8227       0.8179    1384.27864       0.9763       0.8852
   1415.51338       0.8438       0.7651    1384.26338       0.9272       0.8255
   1415.49812       0.8616       0.6971    1384.24812       0.9448       0.9230
   1415.48286       0.7877       0.6971    1384.23286       0.9055       0.8459
   1415.46760       0.8299       0.7596    1384.21760       0.9188       0.8464
   1415.45234       0.8776       0.7917    1384.20234       0.9290       0.8275
   1415.43708       0.8572       0.7430    1384.18708       0.9893       0.8831
   1415.42183       0.8576       0.7675    1384.17183       0.9751       0.8351
   1415.40657       0.8110       0.7703    1384.15657       1.0200       0.8571
   1415.39131       0.8009       0.7582    1384.14131       0.9603       0.8238
   1415.37605       0.7936       0.7792    1384.12605       0.9492       0.8865
   1415.36079       0.8154       0.7246    1384.11079       0.9818       0.8480
   1415.34553       0.8079       0.6994    1384.09553       0.9431       0.8973
   1415.33027       0.8154       0.8057    1384.08027       0.9787       0.8650
   1415.31501       0.8295       0.6957    1384.06501       1.0192       0.8642
   1415.29976       0.8421       0.8170    1384.04976       0.9664       0.8749
   1415.28450       0.8214       0.7356    1384.03450       1.0156       0.8858
   1415.26924       0.8402       0.7594    1384.01924       0.9454       0.8679
   1415.25398       0.7584       0.7495    1384.00398       1.0015       0.8150
   1415.23872       0.8708       0.7556    1383.98872       1.0014       0.8679
   1415.22346       0.8276       0.7319    1383.97346       0.9771       0.8148
   1415.20820       0.7740       0.6834    1383.95820       0.9662       0.8344
   1415.19294       0.8029       0.7083    1383.94294       1.0047       0.7655
   1415.17769       0.8252       0.7698    1383.92769       0.9723       0.7593
   1415.16243       0.8201       0.7057    1383.91243       1.0476       0.7924
   1415.14717       0.7914       0.6678    1383.89717       0.9977       0.8073
   1415.13191       0.8158       0.7643    1383.88191       0.9843       0.8227
   1415.11665       0.8180       0.7069    1383.86665       1.0516       0.7378
   1415.10139       0.7971       0.6645    1383.85139       1.0143       0.7913
   1415.08613       0.7626       0.7176    1383.83613       0.9402       0.7449
   1415.07087       0.8239       0.7171    1383.82087       0.9943       0.7818
   1415.05562       0.7960       0.7109    1383.80562       0.9913       0.7921
   1415.04036       0.8542       0.7987    1383.79036       1.0015       0.7319
   1415.02510       0.7142       0.6855    1383.77510       0.9708       0.7497
   1415.00984       0.8074       0.7220    1383.75984       0.9613       0.7428
   1414.99458       0.7617       0.7356    1383.74458       0.9791       0.7603
   1414.97932       0.7723       0.7151    1383.72932       1.0343       0.7956
   1414.96406       0.8080       0.7601    1383.71406       0.9754       0.6721
   1414.94880       0.7883       0.7190    1383.69880       0.9978       0.7564
   1414.93354       0.8004       0.7524    1383.68354       0.9545       0.7169
   1414.91829       0.7851       0.6835    1383.66829       0.9447       0.7034
   1414.90303       0.7788       0.7921    1383.65303       1.0206       0.6734
   1414.88777       0.8158       0.7113    1383.63777       0.9313       0.6771
   1414.87251       0.7811       0.7427    1383.62251       0.9924       0.6414
   1414.85725       0.7905       0.8159    1383.60725       0.9139       0.6786
   1414.84199       0.7338       0.7846    1383.59199       0.9942       0.6749
   1414.82673       0.7359       0.6682    1383.57673       0.9762       0.6956
   1414.81147       0.7575       0.8043    1383.56147       0.9528       0.6731
   1414.79622       0.8183       0.7126    1383.54622       0.9950       0.6399
