#     FILENAME=Skynet_59340_ASTR344_M31_SashaLevina_59749_8627.A.onoff.cal.txt
#     BASENAME=Skynet_59340_ASTR344_M31_SashaLevina_59749_8627
#      CONTROL=SKYNET
#     PROJCODE=Skynet_59340_ASTR344_M31_SashaLevina_59749
#     DATAROOT=/raid/scratch/cyborg/SkynetData
#      DATADIR=/raid/scratch/cyborg
#     DATADIR2=/raid/scratch/cyborg/SkynetData/Skynet_59340_ASTR344_M31_SashaL
#     SCANNAME=2019_06_26_10
#     SRC_NAME=ASTR344_M31_SashaLevina
#     OBSERVER=haverford2_26746
#     DATE_OBS=2021-05-06T16:17:48.900
#        OBSID=59749
#      SCANNUM=8627
#          MJD=59340.6790382
#          UTC=58669
#     SCANTYPE=onoff
#     DATAMODE=HIRES
#     RECEIVER=Rx1_2
#      OBSFREQ=1395.0000
# Actual_FREQ1=1421.8000,
# Actual_FREQ2=1390.5500
#    LO1Tuning=6856.1800
#     RFFILTER=1355_1435
#        OBSBW=-15.6250
#     EFFBANDW=15.6250
#        NCHAN=1024
#    STARTCHAN=51
#     STOPCHAN=972
#         TINT=0.9999
#         TBIN=0.00419430
#       ACCLEN=2048 
#     DURATION=445.00
#     EXPOSURE=403.98
#        FOCUS=37.071
#       RA,DEC=00:42:58.46, 41:16:07.69
#      RA(deg)=12.67541
#     DEC(deg)=41.26870
#   WIDTH(deg)=3.0169x0.0060
#    AZIM(deg)=287.5962
#    ELEV(deg)=76.3254
#     COORDREF=RA_DEC_
#         HREF=10.6846
#         VREF=41.2687
#      RADESYS=FK5
#       OFFSYS=RADEC
#      EQUINOX=2000.00
#     IFATTENS=21.00, 14.00
#   BALANCELEV=1.200 
#   POWER_XLYR=[2.64, 2.1] 
#       VELDEF=RADI-OBS 
#     VELOCITY=0.000 
#         NPOL=2 
#      POLMODE=Linear 
#      POLTYPE=XXYY 
#      WARNING=None 
#     NOISECAL=HI 
#       PRECAL=5 
#      POSTCAL=5 
#     CRYOTEMP=15 
#      BOXTEMP=24 
#         TSYS=XX1:33.52, YY1:42.28
#         TSYS=XX2:37.47, YY2:38.99
#         TCAL=XX1:9.17, YY1:10.07
#         TCAL=XX2:9.14, YY2:9.87
# Calibrated spectra: Tsys*(ON-OFF)/OFF 
#                
#                
#Freq1(MHz)         XX1          YY1   Freq2(MHz)       XX2         YY2 
   1428.83430       0.6780       0.7364    1397.58430       0.6917       0.2035
   1428.81904       0.7026       0.7619    1397.56904       0.6918       0.2224
   1428.80378       0.6795       0.7888    1397.55378       0.7089       0.2589
   1428.78853       0.6685       0.8598    1397.53853       0.7252       0.2694
   1428.77327       0.6706       0.7992    1397.52327       0.7124       0.2443
   1428.75801       0.7049       0.7691    1397.50801       0.6243       0.1994
   1428.74275       0.7243       0.8426    1397.49275       0.7159       0.1967
   1428.72749       0.7355       0.7393    1397.47749       0.7110       0.2099
   1428.71223       0.6942       0.7968    1397.46223       0.7167       0.2101
   1428.69697       0.6686       0.7524    1397.44697       0.7782       0.2165
   1428.68171       0.7557       0.7428    1397.43171       0.6963       0.2636
   1428.66646       0.7158       0.7027    1397.41646       0.7130       0.2356
   1428.65120       0.6838       0.7742    1397.40120       0.6844       0.2574
   1428.63594       0.7055       0.7448    1397.38594       0.7588       0.2766
   1428.62068       0.6964       0.7520    1397.37068       0.7487       0.2848
   1428.60542       0.7270       0.7496    1397.35542       0.7213       0.2681
   1428.59016       0.7014       0.7478    1397.34016       0.7574       0.2575
   1428.57490       0.6967       0.7730    1397.32490       0.7504       0.2988
   1428.55964       0.7385       0.7767    1397.30964       0.6934       0.2699
   1428.54438       0.6686       0.7526    1397.29438       0.7498       0.3031
   1428.52913       0.6874       0.7391    1397.27913       0.7243       0.2823
   1428.51387       0.7183       0.7409    1397.26387       0.7805       0.2925
   1428.49861       0.6863       0.7752    1397.24861       0.7665       0.2552
   1428.48335       0.7158       0.7638    1397.23335       0.7744       0.3078
   1428.46809       0.7321       0.6879    1397.21809       0.7773       0.2552
   1428.45283       0.7265       0.7278    1397.20283       0.7306       0.3430
   1428.43757       0.7366       0.7107    1397.18757       0.7669       0.3157
   1428.42231       0.7345       0.6774    1397.17231       0.6781       0.3031
   1428.40706       0.6953       0.7839    1397.15706       0.6821       0.3207
   1428.39180       0.6917       0.7283    1397.14180       0.7554       0.3002
   1428.37654       0.7161       0.7175    1397.12654       0.6992       0.3164
   1428.36128       0.7790       0.6826    1397.11128       0.7530       0.3330
   1428.34602       0.7263       0.8040    1397.09602       0.8022       0.3667
   1428.33076       0.7586       0.7652    1397.08076       0.7620       0.4365
   1428.31550       0.7157       0.7811    1397.06550       0.7919       0.3711
   1428.30024       0.7189       0.7551    1397.05024       0.7373       0.2832
   1428.28499       0.7533       0.7285    1397.03499       0.7341       0.3418
   1428.26973       0.7231       0.8543    1397.01973       0.7859       0.3316
   1428.25447       0.7792       0.7401    1397.00447       0.7562       0.3563
   1428.23921       0.7282       0.7498    1396.98921       0.7703       0.3489
   1428.22395       0.7050       0.7120    1396.97395       0.8373       0.3660
   1428.20869       0.7393       0.7223    1396.95869       0.7551       0.3356
   1428.19343       0.6856       0.7194    1396.94343       0.7627       0.3216
   1428.17817       0.7553       0.7017    1396.92817       0.7623       0.3382
   1428.16292       0.7173       0.7733    1396.91292       0.7710       0.3527
   1428.14766       0.7413       0.7240    1396.89766       0.7786       0.3639
   1428.13240       0.7314       0.8199    1396.88240       0.7347       0.3777
   1428.11714       0.7407       0.7511    1396.86714       0.7232       0.3516
   1428.10188       0.7755       0.7087    1396.85188       0.7871       0.3546
   1428.08662       0.7752       0.7709    1396.83662       0.7967       0.3414
   1428.07136       0.7257       0.7199    1396.82136       0.7669       0.3692
   1428.05610       0.7318       0.8055    1396.80610       0.7468       0.3475
   1428.04084       0.7064       0.7225    1396.79084       0.7506       0.3115
   1428.02559       0.7164       0.7918    1396.77559       0.7531       0.4042
   1428.01033       0.7350       0.7247    1396.76033       0.7694       0.3799
   1427.99507       0.7731       0.7881    1396.74507       0.8121       0.3924
   1427.97981       0.7044       0.7771    1396.72981       0.7623       0.3917
   1427.96455       0.7906       0.7772    1396.71455       0.7107       0.3433
   1427.94929       0.7645       0.7119    1396.69929       0.7745       0.3871
   1427.93403       0.7297       0.7531    1396.68403       0.7719       0.4108
   1427.91877       0.7461       0.7701    1396.66877       0.7297       0.4338
   1427.90352       0.7460       0.7350    1396.65352       0.8074       0.4022
   1427.88826       0.7667       0.7720    1396.63826       0.7908       0.3656
   1427.87300       0.8115       0.7920    1396.62300       0.7295       0.3515
   1427.85774       0.7892       0.7612    1396.60774       0.8417       0.4051
   1427.84248       0.7795       0.7903    1396.59248       0.7664       0.4137
   1427.82722       0.7944       0.7692    1396.57722       0.7867       0.4215
   1427.81196       0.7738       0.7816    1396.56196       0.7989       0.3631
   1427.79670       0.7528       0.7794    1396.54670       0.7597       0.4314
   1427.78145       0.8122       0.7913    1396.53145       0.7661       0.4432
   1427.76619       0.7226       0.7364    1396.51619       0.7464       0.4127
   1427.75093       0.7994       0.6826    1396.50093       0.7897       0.3686
   1427.73567       0.7587       0.8019    1396.48567       0.7075       0.4328
   1427.72041       0.7669       0.7373    1396.47041       0.7829       0.3942
   1427.70515       0.7606       0.7532    1396.45515       0.7398       0.4317
   1427.68989       0.7962       0.6827    1396.43989       0.7698       0.4205
   1427.67463       0.7488       0.7703    1396.42463       0.7630       0.4286
   1427.65937       0.7781       0.7251    1396.40937       0.7493       0.4219
   1427.64412       0.7973       0.7460    1396.39412       0.8075       0.4283
   1427.62886       0.8303       0.7651    1396.37886       0.8078       0.4743
   1427.61360       0.7842       0.7335    1396.36360       0.7430       0.3975
   1427.59834       0.8333       0.8014    1396.34834       0.7636       0.4909
   1427.58308       0.7784       0.7804    1396.33308       0.7950       0.3915
   1427.56782       0.7760       0.7773    1396.31782       0.7723       0.4034
   1427.55256       0.7855       0.8218    1396.30256       0.7848       0.4712
   1427.53730       0.8018       0.7497    1396.28730       0.7726       0.4284
   1427.52205       0.8345       0.7338    1396.27205       0.7545       0.3974
   1427.50679       0.8015       0.7339    1396.25679       0.7506       0.4429
   1427.49153       0.8093       0.7550    1396.24153       0.8059       0.4603
   1427.47627       0.8004       0.7984    1396.22627       0.7302       0.4442
   1427.46101       0.8121       0.8365    1396.21101       0.7446       0.4281
   1427.44575       0.8056       0.7915    1396.19575       0.7302       0.4112
   1427.43049       0.7912       0.7225    1396.18049       0.7592       0.4251
   1427.41523       0.8272       0.8009    1396.16523       0.7103       0.4155
   1427.39998       0.8090       0.7741    1396.14998       0.7120       0.4358
   1427.38472       0.7882       0.7425    1396.13472       0.7459       0.4178
   1427.36946       0.8493       0.7304    1396.11946       0.7673       0.4561
   1427.35420       0.8142       0.7432    1396.10420       0.7421       0.4574
   1427.33894       0.8217       0.7388    1396.08894       0.7731       0.3913
   1427.32368       0.8498       0.8172    1396.07368       0.7039       0.4812
   1427.30842       0.8421       0.7225    1396.05842       0.7179       0.4011
   1427.29316       0.7876       0.7411    1396.04316       0.7689       0.5068
   1427.27791       0.8462       0.7670    1396.02791       0.7936       0.4670
   1427.26265       0.8905       0.8356    1396.01265       0.6822       0.4205
   1427.24739       0.7914       0.7901    1395.99739       0.7216       0.4485
   1427.23213       0.8433       0.7524    1395.98213       0.7909       0.4579
   1427.21687       0.7988       0.8020    1395.96687       0.7858       0.4065
   1427.20161       0.8778       0.7651    1395.95161       0.7484       0.4376
   1427.18635       0.8736       0.7438    1395.93635       0.7910       0.4519
   1427.17109       0.8449       0.7622    1395.92109       0.7859       0.4702
   1427.15583       0.8803       0.7549    1395.90583       0.7277       0.4645
   1427.14058       0.8837       0.7708    1395.89058       0.7507       0.4273
   1427.12532       0.8714       0.7679    1395.87532       0.7643       0.4599
   1427.11006       0.8170       0.7869    1395.86006       0.7810       0.4278
   1427.09480       0.8489       0.7955    1395.84480       0.7632       0.4025
   1427.07954       0.8846       0.7596    1395.82954       0.7650       0.4368
   1427.06428       0.8890       0.7624    1395.81428       0.7274       0.4092
   1427.04902       0.8618       0.7966    1395.79902       0.7676       0.4395
   1427.03376       0.8561       0.8107    1395.78376       0.7522       0.3718
   1427.01851       0.8884       0.7469    1395.76851       0.7521       0.4743
   1427.00325       0.8324       0.8204    1395.75325       0.7097       0.4652
   1426.98799       0.8764       0.8351    1395.73799       0.7113       0.4450
   1426.97273       0.8648       0.7710    1395.72273       0.7602       0.4719
   1426.95747       0.8538       0.8007    1395.70747       0.7243       0.3874
   1426.94221       0.8642       0.7476    1395.69221       0.7664       0.4931
   1426.92695       0.9120       0.7536    1395.67695       0.7743       0.4102
   1426.91169       0.8597       0.7657    1395.66169       0.7478       0.4130
   1426.89644       0.8441       0.7390    1395.64644       0.7298       0.4288
   1426.88118       0.8454       0.7356    1395.63118       0.7000       0.4093
   1426.86592       0.8795       0.7537    1395.61592       0.7411       0.4759
   1426.85066       0.8656       0.7536    1395.60066       0.7175       0.3923
   1426.83540       0.8290       0.7776    1395.58540       0.7367       0.4118
   1426.82014       0.8914       0.7306    1395.57014       0.7215       0.4248
   1426.80488       0.8771       0.7581    1395.55488       0.7358       0.4648
   1426.78962       0.8509       0.7722    1395.53962       0.7035       0.4845
   1426.77437       0.9551       0.7061    1395.52437       0.7371       0.3856
   1426.75911       0.8776       0.7784    1395.50911       0.7408       0.4439
   1426.74385       0.9095       0.7228    1395.49385       0.7815       0.4012
   1426.72859       0.8484       0.7602    1395.47859       0.7517       0.4536
   1426.71333       0.8547       0.8008    1395.46333       0.7410       0.4713
   1426.69807       0.8460       0.8185    1395.44807       0.7381       0.4762
   1426.68281       0.8771       0.7400    1395.43281       0.7743       0.3954
   1426.66755       0.9118       0.7687    1395.41755       0.7858       0.3740
   1426.65229       0.8771       0.7300    1395.40229       0.7410       0.4436
   1426.63704       0.8713       0.7703    1395.38704       0.7086       0.4396
   1426.62178       0.8586       0.7897    1395.37178       0.7097       0.4076
   1426.60652       0.9369       0.9472    1395.35652       0.6966       0.4268
   1426.59126       0.9048       0.7019    1395.34126       0.7651       0.4926
   1426.57600       0.8704       0.6694    1395.32600       0.7443       0.4306
   1426.56074       0.8614       0.6740    1395.31074       0.6911       0.3758
   1426.54548       0.8417       0.7134    1395.29548       0.7749       0.4190
   1426.53022       0.8626       0.7435    1395.28022       0.7645       0.3514
   1426.51497       0.9487       0.8143    1395.26497       0.7417       0.3934
   1426.49971       0.8658       0.7321    1395.24971       0.7218       0.3792
   1426.48445       0.9007       0.7102    1395.23445       0.6731       0.4236
   1426.46919       0.9568       0.6927    1395.21919       0.7577       0.4216
   1426.45393       0.9246       0.7393    1395.20393       0.7385       0.3992
   1426.43867       0.8960       0.7548    1395.18867       0.6798       0.3821
   1426.42341       0.8706       0.7453    1395.17341       0.7441       0.3784
   1426.40815       0.9104       0.8071    1395.15815       0.7061       0.4110
   1426.39290       0.8774       0.7587    1395.14290       0.7248       0.3479
   1426.37764       0.9209       0.7373    1395.12764       0.6977       0.3612
   1426.36238       0.8830       0.7343    1395.11238       0.7446       0.4085
   1426.34712       0.8893       0.7579    1395.09712       0.7220       0.3549
   1426.33186       0.8200       0.7337    1395.08186       0.6894       0.3931
   1426.31660       0.8561       0.7486    1395.06660       0.7104       0.3933
   1426.30134       0.8824       0.7125    1395.05134       0.7578       0.3361
   1426.28608       0.8893       0.7317    1395.03608       0.6708       0.4231
   1426.27083       0.9141       0.7184    1395.02083       0.7497       0.4102
   1426.25557       0.9125       0.6884    1395.00557       0.7705       0.4683
   1426.24031       0.8755       0.7451    1394.99031       0.7007       0.3773
   1426.22505       0.8926       0.7614    1394.97505       0.7443       0.3817
   1426.20979       0.8905       0.7056    1394.95979       0.6973       0.3938
   1426.19453       0.9235       0.7627    1394.94453       0.7421       0.4340
   1426.17927       0.9389       0.7236    1394.92927       0.6672       0.4283
   1426.16401       0.8679       0.7060    1394.91401       0.7052       0.3784
   1426.14875       0.9601       0.7557    1394.89875       0.6628       0.4057
   1426.13350       0.8916       0.7547    1394.88350       0.7092       0.4114
   1426.11824       0.8821       0.8025    1394.86824       0.6980       0.4035
   1426.10298       0.9031       0.7912    1394.85298       0.6967       0.3522
   1426.08772       0.9079       0.7975    1394.83772       0.7510       0.3505
   1426.07246       0.9431       0.7545    1394.82246       0.7109       0.3889
   1426.05720       0.9253       0.6692    1394.80720       0.6663       0.3304
   1426.04194       0.9184       0.7751    1394.79194       0.7064       0.3793
   1426.02668       0.9183       0.7616    1394.77668       0.6825       0.4029
   1426.01143       0.9139       0.7223    1394.76143       0.7957       0.3558
   1425.99617       0.8955       0.7369    1394.74617       0.7460       0.3969
   1425.98091       0.9268       0.7731    1394.73091       0.7163       0.3501
   1425.96565       0.9019       0.8094    1394.71565       0.6967       0.3706
   1425.95039       0.8990       0.6904    1394.70039       0.6908       0.4196
   1425.93513       0.9005       0.7286    1394.68513       0.7010       0.4060
   1425.91987       0.9354       0.7325    1394.66987       0.7314       0.3025
   1425.90461       0.9326       0.8356    1394.65461       0.7387       0.3613
   1425.88936       0.9129       0.6731    1394.63936       0.7258       0.3281
   1425.87410       0.9498       0.7317    1394.62410       0.7448       0.3761
   1425.85884       0.9149       0.7196    1394.60884       0.7345       0.3713
   1425.84358       0.9556       0.6858    1394.59358       0.7336       0.3823
   1425.82832       0.9081       0.7021    1394.57832       0.7684       0.3762
   1425.81306       0.9274       0.7334    1394.56306       0.7513       0.2668
   1425.79780       0.9132       0.6826    1394.54780       0.7633       0.3746
   1425.78254       0.9486       0.7621    1394.53254       0.6990       0.3601
   1425.76729       0.9145       0.7427    1394.51729       0.7151       0.3533
   1425.75203       0.9301       0.7609    1394.50203       0.6793       0.3644
   1425.73677       0.9161       0.7260    1394.48677       0.6638       0.3643
   1425.72151       0.9039       0.7401    1394.47151       0.7401       0.3679
   1425.70625       0.9451       0.6964    1394.45625       0.7924       0.3519
   1425.69099       0.9230       0.7509    1394.44099       0.7281       0.3971
   1425.67573       0.9145       0.7693    1394.42573       0.6884       0.3510
   1425.66047       0.9405       0.6963    1394.41047       0.6824       0.4149
   1425.64521       0.9644       0.7587    1394.39521       0.7768       0.3195
   1425.62996       0.9441       0.7300    1394.37996       0.7650       0.3455
   1425.61470       0.9522       0.7090    1394.36470       0.7233       0.3337
   1425.59944       0.9508       0.7473    1394.34944       0.6918       0.3337
   1425.58418       0.8572       0.7321    1394.33418       0.6800       0.3406
   1425.56892       0.9047       0.7371    1394.31892       0.7280       0.3195
   1425.55366       0.9730       0.7104    1394.30366       0.7335       0.3239
   1425.53840       0.9702       0.7720    1394.28840       0.6996       0.3479
   1425.52314       0.9027       0.7341    1394.27314       0.7645       0.3187
   1425.50789       0.9449       0.6986    1394.25789       0.7197       0.3672
   1425.49263       0.9135       0.6910    1394.24263       0.7530       0.3765
   1425.47737       0.9368       0.6996    1394.22737       0.7419       0.3437
   1425.46211       0.9729       0.7217    1394.21211       0.7391       0.3536
   1425.44685       0.9443       0.7773    1394.19685       0.7376       0.3976
   1425.43159       0.9251       0.7250    1394.18159       0.7082       0.3459
   1425.41633       0.9274       0.7177    1394.16633       0.6962       0.3735
   1425.40107       0.9419       0.6903    1394.15107       0.7700       0.3412
   1425.38582       0.9391       0.7112    1394.13582       0.7876       0.3398
   1425.37056       0.9509       0.6989    1394.12056       0.7360       0.3183
   1425.35530       0.9000       0.7154    1394.10530       0.7479       0.3393
   1425.34004       0.9552       0.6862    1394.09004       0.7330       0.3488
   1425.32478       0.9355       0.7388    1394.07478       0.7842       0.3445
   1425.30952       0.9185       0.7267    1394.05952       0.7384       0.3492
   1425.29426       0.9102       0.7209    1394.04426       0.7122       0.3340
   1425.27900       0.9373       0.7768    1394.02900       0.7096       0.3506
   1425.26375       0.9384       0.6948    1394.01375       0.7464       0.3353
   1425.24849       0.9419       0.7794    1393.99849       0.7491       0.3525
   1425.23323       0.9542       0.6743    1393.98323       0.7106       0.3793
   1425.21797       0.9755       0.7304    1393.96797       0.7293       0.3833
   1425.20271       0.9507       0.6682    1393.95271       0.7281       0.3261
   1425.18745       0.9909       0.7620    1393.93745       0.7280       0.3742
   1425.17219       0.9513       0.7283    1393.92219       0.7585       0.3526
   1425.15693       0.9495       0.6965    1393.90693       0.7434       0.3534
   1425.14167       0.9413       0.6868    1393.89167       0.6916       0.3247
   1425.12642       0.9702       0.7651    1393.87642       0.7532       0.3439
   1425.11116       0.9947       0.7219    1393.86116       0.7317       0.3244
   1425.09590       0.9236       0.6314    1393.84590       0.7262       0.4130
   1425.08064       0.9417       0.7358    1393.83064       0.7369       0.3399
   1425.06538       0.9316       0.6723    1393.81538       0.7871       0.3703
   1425.05012       0.9541       0.7110    1393.80012       0.7631       0.3715
   1425.03486       0.9773       0.6776    1393.78486       0.7864       0.4025
   1425.01960       0.9667       0.6759    1393.76960       0.7177       0.4228
   1425.00435       0.9967       0.7507    1393.75435       0.7706       0.3203
   1424.98909       0.9830       0.7106    1393.73909       0.7662       0.3440
   1424.97383       0.9429       0.7253    1393.72383       0.7206       0.3606
   1424.95857       0.9804       0.7027    1393.70857       0.7508       0.3808
   1424.94331       0.9891       0.6772    1393.69331       0.6921       0.3577
   1424.92805       0.9434       0.7096    1393.67805       0.7762       0.3652
   1424.91279       0.9078       0.6772    1393.66279       0.7471       0.3217
   1424.89753       0.9645       0.6673    1393.64753       0.7251       0.3582
   1424.88228       0.9620       0.7490    1393.63228       0.7450       0.3591
   1424.86702       0.9387       0.7184    1393.61702       0.7417       0.3854
   1424.85176       0.9508       0.7096    1393.60176       0.7405       0.3855
   1424.83650       0.9904       0.7054    1393.58650       0.7311       0.3852
   1424.82124       0.9458       0.7210    1393.57124       0.7438       0.3765
   1424.80598       0.9403       0.7013    1393.55598       0.7018       0.3566
   1424.79072       1.0015       0.6924    1393.54072       0.7496       0.3467
   1424.77546       0.9535       0.7349    1393.52546       0.7149       0.3533
   1424.76021       0.9967       0.7401    1393.51021       0.7168       0.3945
   1424.74495       0.9500       0.6878    1393.49495       0.7358       0.3823
   1424.72969       0.9940       0.7302    1393.47969       0.7510       0.3624
   1424.71443       0.9817       0.6728    1393.46443       0.7575       0.4106
   1424.69917       0.9545       0.7174    1393.44917       0.7373       0.3636
   1424.68391       0.9421       0.7276    1393.43391       0.7320       0.3411
   1424.66865       0.9505       0.6208    1393.41865       0.7462       0.3637
   1424.65339       0.9896       0.7030    1393.40339       0.7114       0.3842
   1424.63813       0.9928       0.7437    1393.38813       0.7133       0.3319
   1424.62288       0.9374       0.7009    1393.37288       0.7466       0.3737
   1424.60762       0.9310       0.7011    1393.35762       0.7450       0.3748
   1424.59236       0.9332       0.7274    1393.34236       0.7365       0.3945
   1424.57710       0.9570       0.7184    1393.32710       0.7416       0.4188
   1424.56184       1.0100       0.7004    1393.31184       0.6887       0.3929
   1424.54658       0.9757       0.6572    1393.29658       0.6921       0.4633
   1424.53132       0.9066       0.7077    1393.28132       0.7231       0.3898
   1424.51606       0.9942       0.6319    1393.26606       0.7154       0.4081
   1424.50081       0.9766       0.7070    1393.25081       0.7101       0.4073
   1424.48555       0.9796       0.7085    1393.23555       0.7316       0.3983
   1424.47029       0.9508       0.6969    1393.22029       0.7490       0.3734
   1424.45503       0.9554       0.6809    1393.20503       0.7504       0.3972
   1424.43977       1.0279       0.6308    1393.18977       0.6766       0.3787
   1424.42451       1.0053       0.6879    1393.17451       0.7151       0.3607
   1424.40925       0.9439       0.6715    1393.15925       0.7328       0.3804
   1424.39399       0.9655       0.7408    1393.14399       0.7254       0.3932
   1424.37874       0.9625       0.7202    1393.12874       0.6856       0.3879
   1424.36348       1.0018       0.6516    1393.11348       0.6728       0.3997
   1424.34822       0.9575       0.6537    1393.09822       0.7068       0.3800
   1424.33296       0.9682       0.6955    1393.08296       0.6983       0.3619
   1424.31770       0.9377       0.6938    1393.06770       0.7166       0.3963
   1424.30244       0.9867       0.6379    1393.05244       0.7128       0.4292
   1424.28718       0.9500       0.6847    1393.03718       0.6905       0.4072
   1424.27192       0.9849       0.7246    1393.02192       0.7080       0.4060
   1424.25667       0.9802       0.7717    1393.00667       0.7046       0.4043
   1424.24141       0.9420       0.6535    1392.99141       0.6966       0.3677
   1424.22615       0.9521       0.6365    1392.97615       0.7166       0.4288
   1424.21089       0.9415       0.6402    1392.96089       0.6828       0.4092
   1424.19563       0.9516       0.6873    1392.94563       0.7371       0.4276
   1424.18037       0.9811       0.6468    1392.93037       0.7174       0.4182
   1424.16511       0.9922       0.6384    1392.91511       0.7718       0.4462
   1424.14985       1.0163       0.6542    1392.89985       0.7199       0.4079
   1424.13459       1.0295       0.6256    1392.88459       0.6684       0.4461
   1424.11934       0.9905       0.6876    1392.86934       0.7523       0.4243
   1424.10408       1.0083       0.6603    1392.85408       0.6969       0.4680
   1424.08882       0.9841       0.6722    1392.83882       0.7394       0.4211
   1424.07356       1.0020       0.6360    1392.82356       0.7078       0.4445
   1424.05830       1.0037       0.6791    1392.80830       0.6897       0.4508
   1424.04304       0.9953       0.6682    1392.79304       0.6971       0.4618
   1424.02778       0.9749       0.6483    1392.77778       0.7257       0.4816
   1424.01252       0.9788       0.6832    1392.76252       0.7103       0.4190
   1423.99727       0.9494       0.6540    1392.74727       0.7325       0.4687
   1423.98201       0.9373       0.6577    1392.73201       0.6954       0.4066
   1423.96675       0.9706       0.6511    1392.71675       0.6577       0.4592
   1423.95149       0.9703       0.6210    1392.70149       0.7100       0.4697
   1423.93623       0.9861       0.6655    1392.68623       0.6724       0.4260
   1423.92097       1.0071       0.6383    1392.67097       0.6811       0.5267
   1423.90571       0.9582       0.6604    1392.65571       0.7234       0.5179
   1423.89045       0.9395       0.6520    1392.64045       0.6900       0.5016
   1423.87520       0.9802       0.6338    1392.62520       0.7161       0.4977
   1423.85994       0.9997       0.6080    1392.60994       0.7181       0.4560
   1423.84468       0.9747       0.6791    1392.59468       0.7236       0.4680
   1423.82942       0.9728       0.6454    1392.57942       0.7356       0.4941
   1423.81416       0.9553       0.6444    1392.56416       0.7129       0.4694
   1423.79890       0.9607       0.6156    1392.54890       0.6651       0.4829
   1423.78364       0.9747       0.6118    1392.53364       0.7283       0.4487
   1423.76838       0.9897       0.6519    1392.51838       0.6959       0.4654
   1423.75312       0.9984       0.6415    1392.50312       0.6934       0.4895
   1423.73787       1.0079       0.5608    1392.48787       0.7007       0.4819
   1423.72261       1.0001       0.6295    1392.47261       0.6860       0.4817
   1423.70735       0.9853       0.6487    1392.45735       0.6953       0.4488
   1423.69209       1.0401       0.6353    1392.44209       0.6710       0.5181
   1423.67683       0.9676       0.6796    1392.42683       0.6630       0.5024
   1423.66157       0.9757       0.5632    1392.41157       0.6833       0.4866
   1423.64631       0.9442       0.6121    1392.39631       0.6691       0.5202
   1423.63105       0.9513       0.6528    1392.38105       0.6814       0.5108
   1423.61580       0.9472       0.6005    1392.36580       0.6995       0.5416
   1423.60054       0.9811       0.6629    1392.35054       0.6922       0.5297
   1423.58528       0.9942       0.6246    1392.33528       0.7391       0.5071
   1423.57002       0.9745       0.5657    1392.32002       0.6918       0.4839
   1423.55476       1.0027       0.6227    1392.30476       0.6593       0.5241
   1423.53950       1.0365       0.5961    1392.28950       0.6672       0.4886
   1423.52424       1.0081       0.6238    1392.27424       0.6631       0.5257
   1423.50898       0.9889       0.6232    1392.25898       0.6778       0.4710
   1423.49373       0.9914       0.5877    1392.24373       0.6957       0.5595
   1423.47847       0.9638       0.6220    1392.22847       0.7111       0.5099
   1423.46321       0.9864       0.5885    1392.21321       0.6980       0.5302
   1423.44795       1.0106       0.6133    1392.19795       0.6623       0.5519
   1423.43269       0.9734       0.6204    1392.18269       0.6693       0.5151
   1423.41743       0.9892       0.5059    1392.16743       0.6903       0.5029
   1423.40217       0.9604       0.6199    1392.15217       0.6660       0.4714
   1423.38691       0.9416       0.5498    1392.13691       0.6792       0.5548
   1423.37166       0.9780       0.6042    1392.12166       0.6974       0.5518
   1423.35640       0.9392       0.5571    1392.10640       0.6638       0.5505
   1423.34114       0.9574       0.5686    1392.09114       0.6902       0.5581
   1423.32588       0.9882       0.5784    1392.07588       0.6845       0.5204
   1423.31062       0.9552       0.6394    1392.06062       0.7069       0.5092
   1423.29536       0.9681       0.5457    1392.04536       0.7010       0.5673
   1423.28010       0.9391       0.5251    1392.03010       0.6533       0.5346
   1423.26484       0.9662       0.5675    1392.01484       0.7242       0.5175
   1423.24958       0.9397       0.5716    1391.99958       0.6850       0.5337
   1423.23433       0.9638       0.5912    1391.98433       0.6618       0.5448
   1423.21907       0.9655       0.5652    1391.96907       0.6584       0.5604
   1423.20381       1.0638       0.5558    1391.95381       0.6648       0.5468
   1423.18855       0.9666       0.6487    1391.93855       0.7336       0.5037
   1423.17329       0.9698       0.6222    1391.92329       0.6541       0.5626
   1423.15803       0.9972       0.6464    1391.90803       0.7031       0.5368
   1423.14277       1.0275       0.6306    1391.89277       0.6860       0.5910
   1423.12751       1.0862       0.6316    1391.87751       0.6930       0.5388
   1423.11226       1.0463       0.6467    1391.86226       0.6903       0.5798
   1423.09700       1.0789       0.7300    1391.84700       0.6728       0.5406
   1423.08174       1.0919       0.6970    1391.83174       0.6329       0.5862
   1423.06648       1.1037       0.6736    1391.81648       0.6908       0.6052
   1423.05122       1.1248       0.7126    1391.80122       0.6331       0.5411
   1423.03596       1.1344       0.7398    1391.78596       0.6643       0.5349
   1423.02070       1.1850       0.7873    1391.77070       0.6490       0.5366
   1423.00544       1.1991       0.8189    1391.75544       0.6277       0.5685
   1422.99019       1.1739       0.8009    1391.74019       0.6893       0.5290
   1422.97493       1.1680       0.7359    1391.72493       0.7063       0.5863
   1422.95967       1.2118       0.7511    1391.70967       0.6808       0.5842
   1422.94441       1.2042       0.8143    1391.69441       0.6658       0.5837
   1422.92915       1.2362       0.8567    1391.67915       0.7006       0.6038
   1422.91389       1.2899       0.9023    1391.66389       0.6513       0.5743
   1422.89863       1.2486       0.9579    1391.64863       0.6990       0.5706
   1422.88337       1.2445       0.8674    1391.63337       0.6866       0.6239
   1422.86812       1.2824       0.8407    1391.61812       0.6590       0.5641
   1422.85286       1.2704       0.8258    1391.60286       0.6956       0.5902
   1422.83760       1.2328       0.8714    1391.58760       0.6953       0.5553
   1422.82234       1.2159       0.8755    1391.57234       0.6883       0.5662
   1422.80708       1.2402       0.8177    1391.55708       0.6611       0.5648
   1422.79182       1.2448       0.8393    1391.54182       0.6161       0.5532
   1422.77656       1.2044       0.8882    1391.52656       0.5910       0.5519
   1422.76130       1.2084       0.8508    1391.51130       0.6200       0.5968
   1422.74604       1.2347       0.8197    1391.49604       0.6477       0.5902
   1422.73079       1.3021       0.8103    1391.48079       0.6847       0.5774
   1422.71553       1.2768       0.8750    1391.46553       0.6762       0.5710
   1422.70027       1.2258       0.7905    1391.45027       0.6253       0.5897
   1422.68501       1.2234       0.8864    1391.43501       0.6632       0.6354
   1422.66975       1.2620       0.8517    1391.41975       0.6310       0.5619
   1422.65449       1.3453       0.9385    1391.40449       0.6718       0.6598
   1422.63923       1.3173       0.9619    1391.38923       0.6857       0.6275
   1422.62397       1.3603       0.9785    1391.37397       0.7144       0.6470
   1422.60872       1.4110       0.9911    1391.35872       0.7263       0.5478
   1422.59346       1.4334       1.0854    1391.34346       0.6945       0.5763
   1422.57820       1.4585       1.0639    1391.32820       0.6808       0.5971
   1422.56294       1.4425       1.0231    1391.31294       0.6310       0.5236
   1422.54768       1.4372       1.0658    1391.29768       0.7211       0.5654
   1422.53242       1.4533       1.0930    1391.28242       0.6873       0.6336
   1422.51716       1.4857       1.2016    1391.26716       0.6647       0.5520
   1422.50190       1.5158       1.2429    1391.25190       0.6964       0.6115
   1422.48665       1.5402       1.2215    1391.23665       0.6632       0.5858
   1422.47139       1.5285       1.2865    1391.22139       0.7088       0.5645
   1422.45613       1.5947       1.3463    1391.20613       0.6805       0.6162
   1422.44087       1.6327       1.2986    1391.19087       0.7205       0.5619
   1422.42561       1.6734       1.4236    1391.17561       0.6551       0.5888
   1422.41035       1.7150       1.4429    1391.16035       0.7030       0.6237
   1422.39509       1.7708       1.5617    1391.14509       0.6934       0.5716
   1422.37983       1.7969       1.5125    1391.12983       0.6755       0.6007
   1422.36458       1.8434       1.5797    1391.11458       0.7033       0.6260
   1422.34932       1.8896       1.6830    1391.09932       0.6970       0.5804
   1422.33406       1.9667       1.7099    1391.08406       0.7295       0.5814
   1422.31880       1.9692       1.7755    1391.06880       0.6544       0.6224
   1422.30354       1.9910       1.8085    1391.05354       0.6587       0.5424
   1422.28828       2.0785       1.8745    1391.03828       0.6973       0.5845
   1422.27302       2.1106       2.0056    1391.02302       0.6987       0.5675
   1422.25776       2.1475       2.0544    1391.00776       0.6953       0.5784
   1422.24250       2.2285       2.0757    1390.99250       0.7119       0.6460
   1422.22725       2.2567       2.2020    1390.97725       0.6605       0.5738
   1422.21199       2.3233       2.2462    1390.96199       0.7103       0.5829
   1422.19673       2.4066       2.3859    1390.94673       0.7086       0.5720
   1422.18147       2.4565       2.4584    1390.93147       0.6950       0.6007
   1422.16621       2.4276       2.4392    1390.91621       0.7230       0.6425
   1422.15095       2.5046       2.5109    1390.90095       0.6708       0.5708
   1422.13569       2.5104       2.4571    1390.88569       0.6765       0.6062
   1422.12043       2.5404       2.5529    1390.87043       0.6897       0.5697
   1422.10518       2.6296       2.6934    1390.85518       0.6708       0.5731
   1422.08992       2.7467       2.7972    1390.83992       0.7307       0.5997
   1422.07466       2.8567       2.8714    1390.82466       0.7095       0.6222
   1422.05940       2.9307       2.9962    1390.80940       0.7038       0.5580
   1422.04414       2.9981       3.0380    1390.79414       0.7554       0.6412
   1422.02888       2.9562       3.1243    1390.77888       0.6906       0.5809
   1422.01362       3.0684       3.1599    1390.76362       0.7198       0.5651
   1421.99836       3.0543       3.3542    1390.74836       0.6738       0.5581
   1421.98311       3.1150       3.2987    1390.73311       0.7374       0.5695
   1421.96785       3.2210       3.4188    1390.71785       0.7157       0.6124
   1421.95259       3.2195       3.4091    1390.70259       0.7502       0.5657
   1421.93733       3.2118       3.4511    1390.68733       0.7741       0.5839
   1421.92207       3.2113       3.4539    1390.67207       0.7117       0.5759
   1421.90681       3.1947       3.3606    1390.65681       0.7148       0.5634
   1421.89155       3.1263       3.4026    1390.64155       0.7277       0.5813
   1421.87629       3.2012       3.3414    1390.62629       0.7069       0.5820
   1421.86104       3.1471       3.3211    1390.61104       0.7012       0.6137
   1421.84578       3.0968       3.2136    1390.59578       0.7252       0.6088
   1421.83052       3.0401       3.2745    1390.58052       0.7064       0.6048
   1421.81526       3.0429       3.1808    1390.56526       0.7622       0.5555
   1421.80000       3.0466       3.1596    1390.55000       0.7599       0.5527
   1421.78474       3.0493       3.1385    1390.53474       0.7576       0.5499
   1421.76948       3.0579       3.2067    1390.51948       0.7286       0.5260
   1421.75422       3.1171       3.2482    1390.50422       0.7202       0.6118
   1421.73896       3.0451       3.2770    1390.48896       0.7103       0.5904
   1421.72371       3.0514       3.1963    1390.47371       0.6988       0.5958
   1421.70845       2.9917       3.0046    1390.45845       0.7333       0.5737
   1421.69319       2.8710       2.9783    1390.44319       0.7326       0.5722
   1421.67793       2.7863       2.8800    1390.42793       0.7559       0.5643
   1421.66267       2.7322       2.8445    1390.41267       0.6964       0.6152
   1421.64741       2.6565       2.6741    1390.39741       0.7657       0.5463
   1421.63215       2.5776       2.5998    1390.38215       0.7574       0.5195
   1421.61689       2.4711       2.4279    1390.36689       0.7382       0.5165
   1421.60164       2.3945       2.3428    1390.35164       0.7453       0.5415
   1421.58638       2.3428       2.2215    1390.33638       0.7504       0.5322
   1421.57112       2.2840       2.1517    1390.32112       0.7591       0.5630
   1421.55586       2.2125       2.1174    1390.30586       0.7082       0.5547
   1421.54060       2.1279       1.9584    1390.29060       0.7255       0.5273
   1421.52534       2.0482       1.8737    1390.27534       0.7458       0.5438
   1421.51008       1.9615       1.7803    1390.26008       0.7870       0.5100
   1421.49482       1.8929       1.6656    1390.24482       0.7779       0.5690
   1421.47957       1.8846       1.6669    1390.22957       0.7271       0.5456
   1421.46431       1.7813       1.5666    1390.21431       0.7360       0.5481
   1421.44905       1.7708       1.4583    1390.19905       0.7174       0.5378
   1421.43379       1.6912       1.4740    1390.18379       0.7640       0.5145
   1421.41853       1.6633       1.3803    1390.16853       0.6964       0.5454
   1421.40327       1.6073       1.2948    1390.15327       0.7619       0.5668
   1421.38801       1.5635       1.2042    1390.13801       0.7436       0.5449
   1421.37275       1.5433       1.1612    1390.12275       0.7348       0.5516
   1421.35750       1.5085       1.1346    1390.10750       0.7870       0.5206
   1421.34224       1.4021       1.0702    1390.09224       0.7554       0.5269
   1421.32698       1.4119       1.0221    1390.07698       0.7823       0.5279
   1421.31172       1.3516       0.9786    1390.06172       0.7942       0.5183
   1421.29646       1.3223       0.8976    1390.04646       0.6925       0.5491
   1421.28120       1.2913       0.8457    1390.03120       0.7909       0.5222
   1421.26594       1.2094       0.7961    1390.01594       0.8049       0.5120
   1421.25068       1.1828       0.7594    1390.00068       0.7836       0.5294
   1421.23542       1.1566       0.7884    1389.98542       0.7477       0.5113
   1421.22017       1.1326       0.7442    1389.97017       0.7732       0.4797
   1421.20491       1.1153       0.6621    1389.95491       0.7683       0.5440
   1421.18965       1.0994       0.6361    1389.93965       0.7957       0.4881
   1421.17439       1.0516       0.6521    1389.92439       0.7780       0.4775
   1421.15913       1.0445       0.6270    1389.90913       0.8157       0.5622
   1421.14387       1.0394       0.6169    1389.89387       0.7976       0.4681
   1421.12861       1.0061       0.5135    1389.87861       0.7956       0.5116
   1421.11335       1.0030       0.5302    1389.86335       0.7888       0.5077
   1421.09810       0.9666       0.5562    1389.84810       0.7529       0.4958
   1421.08284       0.9331       0.5207    1389.83284       0.8206       0.4818
   1421.06758       0.9396       0.5285    1389.81758       0.8103       0.4993
   1421.05232       0.9484       0.5506    1389.80232       0.7773       0.4807
   1421.03706       0.9890       0.4961    1389.78706       0.7614       0.3964
   1421.02180       0.9367       0.5172    1389.77180       0.7383       0.4362
   1421.00654       0.9571       0.5166    1389.75654       0.8088       0.4186
   1420.99128       0.9402       0.5365    1389.74128       0.8087       0.5154
   1420.97603       0.9561       0.5896    1389.72603       0.7292       0.4530
   1420.96077       0.9886       0.5370    1389.71077       0.7951       0.4668
   1420.94551       0.9986       0.5011    1389.69551       0.7531       0.4863
   1420.93025       0.9946       0.5760    1389.68025       0.8145       0.4760
   1420.91499       0.9635       0.5771    1389.66499       0.7787       0.4983
   1420.89973       0.9784       0.5814    1389.64973       0.7748       0.4585
   1420.88447       0.9825       0.5910    1389.63447       0.7386       0.4397
   1420.86921       0.9223       0.5576    1389.61921       0.7483       0.4340
   1420.85396       0.9802       0.4742    1389.60396       0.8239       0.4770
   1420.83870       0.8929       0.4710    1389.58870       0.8236       0.4538
   1420.82344       0.8445       0.4556    1389.57344       0.7972       0.4379
   1420.80818       0.9159       0.3717    1389.55818       0.7602       0.4702
   1420.79292       0.8669       0.4095    1389.54292       0.7309       0.4454
   1420.77766       0.8133       0.2942    1389.52766       0.7325       0.4073
   1420.76240       0.5813       0.0876    1389.51240       0.8033       0.3931
   1420.74714       0.3121      -0.2629    1389.49714       0.7761       0.4250
   1420.73188       0.2389      -0.3670    1389.48188       0.8015       0.4044
   1420.71663       0.4875      -0.0324    1389.46663       0.7256       0.4404
   1420.70137       0.7457       0.3077    1389.45137       0.7591       0.4106
   1420.68611       1.0477       0.6714    1389.43611       0.8130       0.3867
   1420.67085       1.4523       1.1271    1389.42085       0.8421       0.4544
   1420.65559       2.0547       2.0386    1389.40559       0.8171       0.4424
   1420.64033       2.1688       2.1740    1389.39033       0.8070       0.3964
   1420.62507       1.8357       1.7013    1389.37507       0.7669       0.3730
   1420.60981       1.6949       1.4976    1389.35981       0.7535       0.4331
   1420.59456       1.6331       1.4203    1389.34456       0.7447       0.4387
   1420.57930       1.8017       1.6819    1389.32930       0.7428       0.3835
   1420.56404       1.5193       1.3589    1389.31404       0.7877       0.4073
   1420.54878       0.8456       0.5237    1389.29878       0.8250       0.4380
   1420.53352       0.6940       0.3298    1389.28352       0.7996       0.4096
   1420.51826       0.7023       0.3384    1389.26826       0.8022       0.4668
   1420.50300       1.2495       0.9766    1389.25300       0.7928       0.3698
   1420.48774       1.8855       1.8766    1389.23774       0.8082       0.3670
   1420.47249       2.9265       3.2131    1389.22249       0.7488       0.4071
   1420.45723       4.9481       5.8859    1389.20723       0.7952       0.3934
   1420.44197       2.3710       2.4604    1389.19197       0.7792       0.3816
   1420.42671      -0.6625      -1.4945    1389.17671       0.8096       0.3544
   1420.41145      -1.2214      -2.2080    1389.16145       0.8374       0.3518
   1420.39619      -0.2402      -0.9517    1389.14619       0.7857       0.3622
   1420.38093       0.1272      -0.4268    1389.13093       0.8552       0.4148
   1420.36567       0.3698      -0.1936    1389.11567       0.8057       0.3915
   1420.35042       0.4563      -0.1423    1389.10042       0.7835       0.3840
   1420.33516       0.5539       0.0037    1389.08516       0.8009       0.3202
   1420.31990       0.5304       0.0261    1389.06990       0.7961       0.3402
   1420.30464       0.5414       0.0264    1389.05464       0.7879       0.3863
   1420.28938       0.5255       0.0118    1389.03938       0.7765       0.3345
   1420.27412       0.5285       0.0293    1389.02412       0.7680       0.3348
   1420.25886       0.5693       0.0298    1389.00886       0.8545       0.3342
   1420.24360       0.5572       0.0865    1388.99360       0.7692       0.3251
   1420.22834       0.5504       0.0472    1388.97834       0.8078       0.3614
   1420.21309       0.5386       0.0455    1388.96309       0.8514       0.3714
   1420.19783       0.5341       0.0347    1388.94783       0.8149       0.3064
   1420.18257       0.5741       0.0716    1388.93257       0.8124       0.3551
   1420.16731       0.5493       0.0447    1388.91731       0.8188       0.3383
   1420.15205       0.5477       0.0944    1388.90205       0.8148       0.3389
   1420.13679       0.5284       0.0524    1388.88679       0.7696       0.3747
   1420.12153       0.5302       0.0619    1388.87153       0.7785       0.3514
   1420.10627       0.5160       0.1192    1388.85627       0.7902       0.3858
   1420.09102       0.5598       0.0804    1388.84102       0.8484       0.3458
   1420.07576       0.5624       0.0946    1388.82576       0.7461       0.3150
   1420.06050       0.5548       0.0309    1388.81050       0.8220       0.2858
   1420.04524       0.5567       0.0388    1388.79524       0.7515       0.3640
   1420.02998       0.5553       0.1174    1388.77998       0.8242       0.3373
   1420.01472       0.5510       0.0741    1388.76472       0.8331       0.3194
   1419.99946       0.5220       0.0390    1388.74946       0.7731       0.3384
   1419.98420       0.4834       0.0671    1388.73420       0.8392       0.3308
   1419.96895       0.5569       0.0726    1388.71895       0.7655       0.3341
   1419.95369       0.5248       0.1003    1388.70369       0.7452       0.3472
   1419.93843       0.5436       0.0578    1388.68843       0.7518       0.3982
   1419.92317       0.4537       0.0830    1388.67317       0.7737       0.2989
   1419.90791       0.4980       0.1163    1388.65791       0.8222       0.3362
   1419.89265       0.5335       0.0741    1388.64265       0.8041       0.3808
   1419.87739       0.5055       0.0601    1388.62739       0.7794       0.3385
   1419.86213       0.5095       0.0457    1388.61213       0.7481       0.3433
   1419.84687       0.5241       0.0913    1388.59687       0.8149       0.3327
   1419.83162       0.5214       0.1175    1388.58162       0.8149       0.3527
   1419.81636       0.4907       0.0698    1388.56636       0.8139       0.3146
   1419.80110       0.5514       0.0578    1388.55110       0.8154       0.3324
   1419.78584       0.5020       0.0471    1388.53584       0.8115       0.2739
   1419.77058       0.5456       0.0970    1388.52058       0.7829       0.3390
   1419.75532       0.4993       0.1012    1388.50532       0.7911       0.2880
   1419.74006       0.5096       0.1067    1388.49006       0.7628       0.2888
   1419.72480       0.5034       0.1352    1388.47480       0.7812       0.3129
   1419.70955       0.5283       0.1054    1388.45955       0.7813       0.2554
   1419.69429       0.4954       0.0654    1388.44429       0.7845       0.2979
   1419.67903       0.5029       0.0881    1388.42903       0.8195       0.2997
   1419.66377       0.4925       0.1113    1388.41377       0.7687       0.2575
   1419.64851       0.4675       0.0925    1388.39851       0.7715       0.3370
   1419.63325       0.5152       0.0615    1388.38325       0.7516       0.2840
   1419.61799       0.4794       0.1212    1388.36799       0.8278       0.3043
   1419.60273       0.5034       0.1078    1388.35273       0.7978       0.3392
   1419.58748       0.4800       0.0476    1388.33748       0.7221       0.3127
   1419.57222       0.5204       0.1543    1388.32222       0.8186       0.2944
   1419.55696       0.4780       0.1245    1388.30696       0.7542       0.2686
   1419.54170       0.4934       0.0867    1388.29170       0.8464       0.2967
   1419.52644       0.4910       0.0951    1388.27644       0.7567       0.2898
   1419.51118       0.4929       0.1303    1388.26118       0.7229       0.3169
   1419.49592       0.4735       0.1415    1388.24592       0.8029       0.2795
   1419.48066       0.5196       0.0981    1388.23066       0.7914       0.3132
   1419.46541       0.5265       0.0937    1388.21541       0.7208       0.2748
   1419.45015       0.4978       0.0652    1388.20015       0.8173       0.3312
   1419.43489       0.5075       0.0985    1388.18489       0.7618       0.3197
   1419.41963       0.5165       0.1205    1388.16963       0.7754       0.2829
   1419.40437       0.5118       0.1673    1388.15437       0.7862       0.3175
   1419.38911       0.4948       0.1474    1388.13911       0.7686       0.2911
   1419.37385       0.4795       0.1548    1388.12385       0.7931       0.3135
   1419.35859       0.5352       0.1503    1388.10859       0.7480       0.3383
   1419.34333       0.5011       0.0722    1388.09333       0.7937       0.3283
   1419.32808       0.5362       0.1735    1388.07808       0.7977       0.2784
   1419.31282       0.5127       0.1305    1388.06282       0.7934       0.2603
   1419.29756       0.4836       0.1296    1388.04756       0.7233       0.3098
   1419.28230       0.4915       0.0826    1388.03230       0.7467       0.3254
   1419.26704       0.4733       0.1024    1388.01704       0.7704       0.3064
   1419.25178       0.4819       0.1945    1388.00178       0.8219       0.2872
   1419.23652       0.5209       0.1675    1387.98652       0.7571       0.2979
   1419.22126       0.4867       0.1852    1387.97126       0.7815       0.3115
   1419.20601       0.4696       0.1377    1387.95601       0.7587       0.2672
   1419.19075       0.4964       0.1646    1387.94075       0.7446       0.3253
   1419.17549       0.4929       0.2042    1387.92549       0.7273       0.2819
   1419.16023       0.4752       0.1668    1387.91023       0.7603       0.3438
   1419.14497       0.4909       0.1448    1387.89497       0.7201       0.3244
   1419.12971       0.4803       0.1360    1387.87971       0.7692       0.3298
   1419.11445       0.4802       0.1482    1387.86445       0.8373       0.2938
   1419.09919       0.4837       0.1955    1387.84919       0.8270       0.3126
   1419.08394       0.5025       0.1995    1387.83394       0.7508       0.3209
   1419.06868       0.4901       0.1772    1387.81868       0.7737       0.3449
   1419.05342       0.4756       0.1175    1387.80342       0.8136       0.3528
   1419.03816       0.4914       0.1452    1387.78816       0.7910       0.3184
   1419.02290       0.4589       0.1493    1387.77290       0.7548       0.3204
   1419.00764       0.4964       0.1783    1387.75764       0.7614       0.3650
   1418.99238       0.4348       0.1802    1387.74238       0.7717       0.3239
   1418.97712       0.4849       0.1633    1387.72712       0.7658       0.3173
   1418.96187       0.4579       0.1819    1387.71187       0.7529       0.3412
   1418.94661       0.4391       0.1606    1387.69661       0.7873       0.3120
   1418.93135       0.5018       0.1681    1387.68135       0.7847       0.3553
   1418.91609       0.4755       0.1817    1387.66609       0.8211       0.2892
   1418.90083       0.4778       0.1369    1387.65083       0.7030       0.2837
   1418.88557       0.4823       0.1944    1387.63557       0.7881       0.3216
   1418.87031       0.4788       0.2148    1387.62031       0.7634       0.3898
   1418.85505       0.4159       0.2443    1387.60505       0.7232       0.3677
   1418.83979       0.4416       0.2240    1387.58979       0.7234       0.3492
   1418.82454       0.4892       0.2308    1387.57454       0.7150       0.3125
   1418.80928       0.4750       0.1779    1387.55928       0.7587       0.3259
   1418.79402       0.4676       0.2358    1387.54402       0.7097       0.3243
   1418.77876       0.5213       0.2388    1387.52876       0.7442       0.3159
   1418.76350       0.4631       0.2402    1387.51350       0.7658       0.3131
   1418.74824       0.4490       0.2560    1387.49824       0.7672       0.3527
   1418.73298       0.4760       0.1679    1387.48298       0.8482       0.3361
   1418.71772       0.4317       0.2350    1387.46772       0.7200       0.3319
   1418.70247       0.4890       0.1745    1387.45247       0.7794       0.3112
   1418.68721       0.4883       0.2240    1387.43721       0.7673       0.3385
   1418.67195       0.5100       0.2805    1387.42195       0.7544       0.3358
   1418.65669       0.4472       0.2276    1387.40669       0.7503       0.3427
   1418.64143       0.4852       0.2229    1387.39143       0.7406       0.3822
   1418.62617       0.4825       0.2195    1387.37617       0.8010       0.3509
   1418.61091       0.5194       0.2573    1387.36091       0.7577       0.3724
   1418.59565       0.4861       0.2545    1387.34565       0.7760       0.3585
   1418.58040       0.4974       0.2664    1387.33040       0.7682       0.3906
   1418.56514       0.4711       0.2542    1387.31514       0.7689       0.3513
   1418.54988       0.5202       0.2447    1387.29988       0.7682       0.3536
   1418.53462       0.5203       0.2648    1387.28462       0.7588       0.3524
   1418.51936       0.5278       0.3354    1387.26936       0.7514       0.3307
   1418.50410       0.5035       0.3351    1387.25410       0.7793       0.3426
   1418.48884       0.4916       0.2683    1387.23884       0.7827       0.3205
   1418.47358       0.4943       0.2963    1387.22358       0.7648       0.3444
   1418.45833       0.5429       0.2585    1387.20833       0.7690       0.3463
   1418.44307       0.5378       0.2912    1387.19307       0.7720       0.4007
   1418.42781       0.4917       0.2536    1387.17781       0.8024       0.3471
   1418.41255       0.5303       0.2655    1387.16255       0.7885       0.3250
   1418.39729       0.4932       0.2598    1387.14729       0.7165       0.4104
   1418.38203       0.4675       0.3259    1387.13203       0.7933       0.3596
   1418.36677       0.4992       0.3445    1387.11677       0.7667       0.3658
   1418.35151       0.5185       0.3270    1387.10151       0.7290       0.4128
   1418.33625       0.5047       0.3017    1387.08625       0.7264       0.3676
   1418.32100       0.5156       0.3064    1387.07100       0.7416       0.3391
   1418.30574       0.5242       0.3177    1387.05574       0.8255       0.3570
   1418.29048       0.5253       0.3143    1387.04048       0.7232       0.3627
   1418.27522       0.5513       0.3450    1387.02522       0.7165       0.3901
   1418.25996       0.5102       0.2964    1387.00996       0.7262       0.3900
   1418.24470       0.5159       0.3540    1386.99470       0.7916       0.3693
   1418.22944       0.5076       0.3262    1386.97944       0.8254       0.3723
   1418.21418       0.5177       0.3374    1386.96418       0.7775       0.4363
   1418.19893       0.5504       0.3884    1386.94893       0.7518       0.3882
   1418.18367       0.5164       0.4234    1386.93367       0.7212       0.4038
   1418.16841       0.5662       0.4019    1386.91841       0.6917       0.4300
   1418.15315       0.5176       0.4127    1386.90315       0.8055       0.4299
   1418.13789       0.5227       0.3716    1386.88789       0.7472       0.4205
   1418.12263       0.4917       0.3942    1386.87263       0.8412       0.3877
   1418.10737       0.5671       0.3315    1386.85737       0.7420       0.4129
   1418.09211       0.5085       0.3616    1386.84211       0.7743       0.4000
   1418.07686       0.4872       0.3910    1386.82686       0.7882       0.4351
   1418.06160       0.4827       0.4124    1386.81160       0.7677       0.4372
   1418.04634       0.5841       0.4009    1386.79634       0.7715       0.4721
   1418.03108       0.5401       0.4031    1386.78108       0.7454       0.4213
   1418.01582       0.5413       0.3712    1386.76582       0.7389       0.4310
   1418.00056       0.5509       0.4246    1386.75056       0.7722       0.4103
   1417.98530       0.5191       0.3890    1386.73530       0.7377       0.4712
   1417.97004       0.5226       0.3935    1386.72004       0.7841       0.4474
   1417.95479       0.5131       0.3502    1386.70479       0.7425       0.3977
   1417.93953       0.5207       0.3732    1386.68953       0.7466       0.4258
   1417.92427       0.5244       0.4429    1386.67427       0.7503       0.4365
   1417.90901       0.5050       0.4559    1386.65901       0.7350       0.4032
   1417.89375       0.5367       0.4486    1386.64375       0.7667       0.3947
   1417.87849       0.5050       0.4823    1386.62849       0.8055       0.4069
   1417.86323       0.5386       0.3877    1386.61323       0.7715       0.4517
   1417.84797       0.6024       0.4186    1386.59797       0.7513       0.4376
   1417.83271       0.5586       0.4507    1386.58271       0.7107       0.4930
   1417.81746       0.5327       0.4635    1386.56746       0.7417       0.4505
   1417.80220       0.5646       0.4841    1386.55220       0.7982       0.4857
   1417.78694       0.5272       0.4988    1386.53694       0.7489       0.4480
   1417.77168       0.5517       0.4793    1386.52168       0.7553       0.4012
   1417.75642       0.5653       0.4673    1386.50642       0.8509       0.4811
   1417.74116       0.5465       0.4548    1386.49116       0.7340       0.4190
   1417.72590       0.5781       0.4754    1386.47590       0.7923       0.4932
   1417.71064       0.4924       0.4436    1386.46064       0.7588       0.4113
   1417.69539       0.5540       0.4395    1386.44539       0.8099       0.4729
   1417.68013       0.5197       0.5050    1386.43013       0.7854       0.5102
   1417.66487       0.5608       0.5412    1386.41487       0.7704       0.5012
   1417.64961       0.5725       0.5467    1386.39961       0.8028       0.4624
   1417.63435       0.5797       0.5071    1386.38435       0.7862       0.4618
   1417.61909       0.5535       0.5363    1386.36909       0.7655       0.4811
   1417.60383       0.5619       0.5202    1386.35383       0.7533       0.4837
   1417.58857       0.5611       0.4858    1386.33857       0.8128       0.4906
   1417.57332       0.5500       0.4969    1386.32332       0.8339       0.4911
   1417.55806       0.5322       0.5473    1386.30806       0.7454       0.5086
   1417.54280       0.5614       0.5190    1386.29280       0.7717       0.5025
   1417.52754       0.5983       0.5639    1386.27754       0.7528       0.5170
   1417.51228       0.5663       0.5231    1386.26228       0.7955       0.5091
   1417.49702       0.5675       0.5948    1386.24702       0.7646       0.4612
   1417.48176       0.5805       0.4979    1386.23176       0.8450       0.4837
   1417.46650       0.5630       0.5889    1386.21650       0.7681       0.5150
   1417.45125       0.5955       0.5614    1386.20125       0.7676       0.4900
   1417.43599       0.5799       0.6204    1386.18599       0.7286       0.5007
   1417.42073       0.5643       0.5597    1386.17073       0.7668       0.5664
   1417.40547       0.5858       0.5742    1386.15547       0.8105       0.5078
   1417.39021       0.5802       0.5532    1386.14021       0.7605       0.5205
   1417.37495       0.5659       0.5580    1386.12495       0.7703       0.5197
   1417.35969       0.6050       0.5646    1386.10969       0.8081       0.5027
   1417.34443       0.6447       0.5984    1386.09443       0.8298       0.5057
   1417.32917       0.6221       0.5440    1386.07917       0.7633       0.5484
   1417.31392       0.6033       0.5751    1386.06392       0.7850       0.5496
   1417.29866       0.6029       0.6158    1386.04866       0.7947       0.5172
   1417.28340       0.6464       0.5401    1386.03340       0.7187       0.5508
   1417.26814       0.5853       0.5817    1386.01814       0.7501       0.5295
   1417.25288       0.5625       0.6178    1386.00288       0.7698       0.5548
   1417.23762       0.6017       0.5758    1385.98762       0.7889       0.5240
   1417.22236       0.5933       0.5830    1385.97236       0.7595       0.5240
   1417.20710       0.6016       0.5983    1385.95710       0.7205       0.5263
   1417.19185       0.5933       0.6446    1385.94185       0.7524       0.5054
   1417.17659       0.6180       0.5879    1385.92659       0.7708       0.5093
   1417.16133       0.5817       0.6099    1385.91133       0.7737       0.5155
   1417.14607       0.6317       0.6576    1385.89607       0.6916       0.5254
   1417.13081       0.6322       0.6685    1385.88081       0.7539       0.5545
   1417.11555       0.6078       0.6161    1385.86555       0.7602       0.5294
   1417.10029       0.6371       0.5595    1385.85029       0.8036       0.4816
   1417.08503       0.6087       0.6720    1385.83503       0.7469       0.5427
   1417.06978       0.6265       0.6136    1385.81978       0.7659       0.5257
   1417.05452       0.6276       0.6363    1385.80452       0.7359       0.5323
   1417.03926       0.6177       0.6211    1385.78926       0.7172       0.4985
   1417.02400       0.6325       0.6745    1385.77400       0.7618       0.5044
   1417.00874       0.6282       0.6337    1385.75874       0.7630       0.5443
   1416.99348       0.6195       0.6648    1385.74348       0.7568       0.5451
   1416.97822       0.6163       0.6610    1385.72822       0.7423       0.5197
   1416.96296       0.6151       0.6837    1385.71296       0.7549       0.5383
   1416.94771       0.6064       0.7082    1385.69771       0.7619       0.5285
   1416.93245       0.6133       0.6937    1385.68245       0.7679       0.5594
   1416.91719       0.6717       0.6280    1385.66719       0.7646       0.5271
   1416.90193       0.6450       0.6284    1385.65193       0.7819       0.4778
   1416.88667       0.6245       0.7375    1385.63667       0.7620       0.5441
   1416.87141       0.6096       0.7044    1385.62141       0.8095       0.5578
   1416.85615       0.6370       0.7573    1385.60615       0.8085       0.5010
   1416.84089       0.6487       0.6825    1385.59089       0.7782       0.5085
   1416.82563       0.6446       0.6857    1385.57563       0.7853       0.5087
   1416.81038       0.6210       0.7602    1385.56038       0.7687       0.5627
   1416.79512       0.6587       0.6915    1385.54512       0.7480       0.5007
   1416.77986       0.6735       0.6991    1385.52986       0.7526       0.5128
   1416.76460       0.6440       0.6860    1385.51460       0.7361       0.5245
   1416.74934       0.6631       0.7401    1385.49934       0.7460       0.5388
   1416.73408       0.6629       0.6621    1385.48408       0.7399       0.5203
   1416.71882       0.6746       0.7280    1385.46882       0.7236       0.5145
   1416.70356       0.6145       0.6336    1385.45356       0.7471       0.5564
   1416.68831       0.6140       0.7130    1385.43831       0.7692       0.5766
   1416.67305       0.6335       0.6920    1385.42305       0.7581       0.5218
   1416.65779       0.6227       0.6891    1385.40779       0.7250       0.5465
   1416.64253       0.6283       0.7301    1385.39253       0.7392       0.5599
   1416.62727       0.6650       0.7621    1385.37727       0.8073       0.5530
   1416.61201       0.6635       0.7268    1385.36201       0.7985       0.4629
   1416.59675       0.6424       0.7215    1385.34675       0.7379       0.5757
   1416.58149       0.6511       0.6820    1385.33149       0.7334       0.5202
   1416.56624       0.6427       0.7172    1385.31624       0.8234       0.5224
   1416.55098       0.6270       0.6956    1385.30098       0.7443       0.5459
   1416.53572       0.5936       0.6925    1385.28572       0.7392       0.5085
   1416.52046       0.6056       0.7330    1385.27046       0.7737       0.5202
   1416.50520       0.6603       0.7237    1385.25520       0.7134       0.5049
   1416.48994       0.7027       0.7793    1385.23994       0.7311       0.5078
   1416.47468       0.6240       0.7511    1385.22468       0.7472       0.5266
   1416.45942       0.6531       0.7832    1385.20942       0.7729       0.5134
   1416.44417       0.6768       0.6651    1385.19417       0.7427       0.5047
   1416.42891       0.6517       0.7933    1385.17891       0.7764       0.4901
   1416.41365       0.6750       0.7443    1385.16365       0.7471       0.5065
   1416.39839       0.6542       0.7654    1385.14839       0.7768       0.4924
   1416.38313       0.6690       0.7704    1385.13313       0.7498       0.4552
   1416.36787       0.6832       0.7819    1385.11787       0.7256       0.4942
   1416.35261       0.6598       0.7414    1385.10261       0.7458       0.4849
   1416.33735       0.6720       0.7104    1385.08735       0.8073       0.4568
   1416.32209       0.6961       0.7578    1385.07209       0.7081       0.5120
   1416.30684       0.6723       0.7140    1385.05684       0.7085       0.5177
   1416.29158       0.6733       0.7652    1385.04158       0.7404       0.5068
   1416.27632       0.6798       0.7727    1385.02632       0.7802       0.5171
   1416.26106       0.6665       0.7809    1385.01106       0.7432       0.4447
   1416.24580       0.6576       0.7788    1384.99580       0.7638       0.5185
   1416.23054       0.6641       0.8426    1384.98054       0.7213       0.4513
   1416.21528       0.6958       0.8104    1384.96528       0.7089       0.5118
   1416.20002       0.6218       0.7779    1384.95002       0.7302       0.4939
   1416.18477       0.6847       0.8468    1384.93477       0.7690       0.4995
   1416.16951       0.6814       0.8100    1384.91951       0.7127       0.4877
   1416.15425       0.6461       0.7935    1384.90425       0.6882       0.4976
   1416.13899       0.7383       0.7595    1384.88899       0.7593       0.4656
   1416.12373       0.7015       0.8124    1384.87373       0.8149       0.4692
   1416.10847       0.6949       0.8019    1384.85847       0.7392       0.4636
   1416.09321       0.6844       0.7919    1384.84321       0.7071       0.4786
   1416.07795       0.7278       0.8065    1384.82795       0.7047       0.4661
   1416.06270       0.7407       0.7842    1384.81270       0.7567       0.4505
   1416.04744       0.6801       0.8123    1384.79744       0.7391       0.4910
   1416.03218       0.6507       0.8426    1384.78218       0.7321       0.5151
   1416.01692       0.7274       0.8180    1384.76692       0.7225       0.4077
   1416.00166       0.6914       0.9237    1384.75166       0.7892       0.4207
   1415.98640       0.6834       0.8136    1384.73640       0.7636       0.4774
   1415.97114       0.6830       0.8935    1384.72114       0.7058       0.4784
   1415.95588       0.6959       0.8130    1384.70588       0.6986       0.4839
   1415.94062       0.6764       0.8233    1384.69062       0.7545       0.4680
   1415.92537       0.6511       0.8274    1384.67537       0.7628       0.5278
   1415.91011       0.7059       0.7794    1384.66011       0.7210       0.4767
   1415.89485       0.6409       0.7712    1384.64485       0.7694       0.4440
   1415.87959       0.6486       0.8179    1384.62959       0.7793       0.4083
   1415.86433       0.6912       0.8357    1384.61433       0.7450       0.4633
   1415.84907       0.6406       0.8843    1384.59907       0.7500       0.4029
   1415.83381       0.6845       0.8073    1384.58381       0.6681       0.4471
   1415.81855       0.6709       0.8672    1384.56855       0.7363       0.3567
   1415.80330       0.6837       0.8122    1384.55330       0.7161       0.4566
   1415.78804       0.6878       0.7991    1384.53804       0.8114       0.3997
   1415.77278       0.6703       0.8475    1384.52278       0.7335       0.4322
   1415.75752       0.6668       0.8236    1384.50752       0.7515       0.3918
   1415.74226       0.7004       0.8240    1384.49226       0.7121       0.4161
   1415.72700       0.6850       0.8775    1384.47700       0.7561       0.4426
   1415.71174       0.7074       0.7980    1384.46174       0.7625       0.4701
   1415.69648       0.6914       0.8120    1384.44648       0.7537       0.4213
   1415.68123       0.6980       0.8611    1384.43123       0.7470       0.3994
   1415.66597       0.6569       0.8583    1384.41597       0.7280       0.3899
   1415.65071       0.6931       0.8369    1384.40071       0.7742       0.4581
   1415.63545       0.6799       0.8678    1384.38545       0.7796       0.3742
   1415.62019       0.6862       0.8583    1384.37019       0.7547       0.3997
   1415.60493       0.7158       0.8915    1384.35493       0.7343       0.3844
   1415.58967       0.7196       0.8983    1384.33967       0.7166       0.4082
   1415.57441       0.6853       0.8098    1384.32441       0.6753       0.3731
   1415.55916       0.7158       0.8844    1384.30916       0.7059       0.4167
   1415.54390       0.6651       0.8222    1384.29390       0.7549       0.3570
   1415.52864       0.7162       0.8823    1384.27864       0.7180       0.3442
   1415.51338       0.6874       0.8520    1384.26338       0.7636       0.3520
   1415.49812       0.7070       0.8826    1384.24812       0.7348       0.2899
   1415.48286       0.6848       0.8206    1384.23286       0.7312       0.3437
   1415.46760       0.6636       0.8751    1384.21760       0.7742       0.3468
   1415.45234       0.7140       0.8964    1384.20234       0.7240       0.3260
   1415.43708       0.7041       0.8969    1384.18708       0.7866       0.3373
   1415.42183       0.6935       0.8824    1384.17183       0.7788       0.3443
   1415.40657       0.6863       1.0118    1384.15657       0.7297       0.3046
   1415.39131       0.6856       0.8615    1384.14131       0.7745       0.3043
   1415.37605       0.6901       0.8628    1384.12605       0.7266       0.3403
   1415.36079       0.6946       0.9298    1384.11079       0.6974       0.3132
   1415.34553       0.6562       0.8807    1384.09553       0.7887       0.3452
   1415.33027       0.7516       0.8919    1384.08027       0.7593       0.2940
   1415.31501       0.6886       0.9431    1384.06501       0.7244       0.3519
   1415.29976       0.7054       0.8402    1384.04976       0.7353       0.2889
   1415.28450       0.6523       0.8348    1384.03450       0.7109       0.2510
   1415.26924       0.7251       0.9082    1384.01924       0.6879       0.3417
   1415.25398       0.6781       0.8821    1384.00398       0.7397       0.3297
   1415.23872       0.6921       0.9525    1383.98872       0.7556       0.3071
   1415.22346       0.6989       0.9538    1383.97346       0.7353       0.2869
   1415.20820       0.6947       0.9083    1383.95820       0.7048       0.2639
   1415.19294       0.7142       0.9205    1383.94294       0.7493       0.2670
   1415.17769       0.6968       0.9013    1383.92769       0.6996       0.3010
   1415.16243       0.6447       0.9131    1383.91243       0.6720       0.3379
   1415.14717       0.6634       0.9105    1383.89717       0.7008       0.3332
   1415.13191       0.7526       0.8309    1383.88191       0.6828       0.3022
   1415.11665       0.6948       0.9073    1383.86665       0.7018       0.3110
   1415.10139       0.7096       0.8660    1383.85139       0.6983       0.2819
   1415.08613       0.6577       0.9213    1383.83613       0.6995       0.2807
   1415.07087       0.7442       0.9238    1383.82087       0.6687       0.2129
   1415.05562       0.6920       0.9194    1383.80562       0.7143       0.2691
   1415.04036       0.7158       0.8494    1383.79036       0.7279       0.2730
   1415.02510       0.7193       0.9755    1383.77510       0.6706       0.2180
   1415.00984       0.7289       0.9487    1383.75984       0.6866       0.2949
   1414.99458       0.7283       0.9099    1383.74458       0.7161       0.2157
   1414.97932       0.6911       0.9714    1383.72932       0.7059       0.3010
   1414.96406       0.7293       0.9625    1383.71406       0.7470       0.2896
   1414.94880       0.6940       0.9979    1383.69880       0.7493       0.2384
   1414.93354       0.6294       0.9423    1383.68354       0.7476       0.2238
   1414.91829       0.6630       0.9950    1383.66829       0.7458       0.2438
   1414.90303       0.6651       0.9293    1383.65303       0.7107       0.2540
   1414.88777       0.7486       0.9845    1383.63777       0.6779       0.2305
   1414.87251       0.6906       0.9093    1383.62251       0.6332       0.2393
   1414.85725       0.7045       0.9149    1383.60725       0.6441       0.2826
   1414.84199       0.7198       0.9366    1383.59199       0.6637       0.1995
   1414.82673       0.6515       0.9273    1383.57673       0.7169       0.2008
   1414.81147       0.7127       0.8991    1383.56147       0.7259       0.2024
   1414.79622       0.6875       0.8887    1383.54622       0.6616       0.1836
