#     FILENAME=Skynet_59284_M31_40kpc_CSinger_52432_1410.A.onoff.cal.txt
#     BASENAME=Skynet_59284_M31_40kpc_CSinger_52432_1410
#      CONTROL=SKYNET
#     PROJCODE=Skynet_59284_M31_40kpc_CSinger_52432
#     DATAROOT=/raid/scratch/cyborg/SkynetData
#      DATADIR=/raid/scratch/cyborg
#     DATADIR2=/raid/scratch/cyborg/SkynetData/Skynet_59284_M31_40kpc_CSinger_
#     SCANNAME=2019_06_26_10
#     SRC_NAME=M31_40kpc_CSinger
#     OBSERVER=unioncollege_21317
#     DATE_OBS=2021-03-11T12:51:35.440
#        OBSID=52432
#      SCANNUM=1410
#          MJD=59284.5358269
#          UTC=46295
#     SCANTYPE=onoff
#     DATAMODE=HIRES
#     RECEIVER=Rx1_2
#      OBSFREQ=1395.0000
# Actual_FREQ1=1420.4000,
# Actual_FREQ2=1420.4000
#    LO1Tuning=6870.4000
#     RFFILTER=1355_1435
#        OBSBW=-15.6250
#     EFFBANDW=15.6250
#        NCHAN=1024
#    STARTCHAN=51
#     STOPCHAN=972
#         TINT=0.3000
#         TBIN=0.00419430
#       ACCLEN=2048 
#     DURATION=440.10
#     EXPOSURE=344.05
#        FOCUS=37.071
#       RA,DEC=00:33:28.54, 38:56:54.65
#      RA(deg)=7.01291
#     DEC(deg)=38.94821
#   WIDTH(deg)=2.0913x0.0363
#    AZIM(deg)=59.6874
#    ELEV(deg)=27.0460
#     COORDREF=RA_DEC_
#         HREF=8.2988
#         VREF=38.9483
#      RADESYS=FK5
#       OFFSYS=RADEC
#      EQUINOX=2000.00
#     IFATTENS=21.00, 14.00
#   BALANCELEV=1.200 
#   POWER_XLYR=[1.41, 1.15] 
#       VELDEF=RADI-OBS 
#     VELOCITY=0.000 
#         NPOL=2 
#      POLMODE=Linear 
#      POLTYPE=XXYY 
#      WARNING=None 
#     NOISECAL=HI 
#       PRECAL=2 
#      POSTCAL=2 
#     CRYOTEMP=15 
#      BOXTEMP=26 
#         TSYS=XX1:32.60, YY1:40.00
#         TSYS=XX2:32.60, YY2:39.99
#         TCAL=XX1:9.17, YY1:10.07
#         TCAL=XX2:9.17, YY2:10.07
# Calibrated spectra: Tsys*(ON-OFF)/OFF 
#                
#                
#Freq1(MHz)         XX1          YY1   Freq2(MHz)       XX2         YY2 
   1427.43430       0.5449       0.5107    1427.43430       0.5449       0.5106
   1427.41904       0.5510       0.5166    1427.41904       0.5510       0.5165
   1427.40378       0.5323       0.5348    1427.40378       0.5323       0.5347
   1427.38853       0.5210       0.4848    1427.38853       0.5210       0.4847
   1427.37327       0.5910       0.5492    1427.37327       0.5910       0.5491
   1427.35801       0.5848       0.5124    1427.35801       0.5848       0.5123
   1427.34275       0.5361       0.4705    1427.34275       0.5361       0.4704
   1427.32749       0.5538       0.5432    1427.32749       0.5538       0.5431
   1427.31223       0.5427       0.4794    1427.31223       0.5427       0.4793
   1427.29697       0.5576       0.4911    1427.29697       0.5576       0.4910
   1427.28171       0.5878       0.5658    1427.28171       0.5878       0.5657
   1427.26646       0.5218       0.4635    1427.26646       0.5218       0.4634
   1427.25120       0.5731       0.5641    1427.25120       0.5731       0.5640
   1427.23594       0.5492       0.5360    1427.23594       0.5491       0.5359
   1427.22068       0.5816       0.5862    1427.22068       0.5816       0.5861
   1427.20542       0.5751       0.4915    1427.20542       0.5751       0.4914
   1427.19016       0.5583       0.5277    1427.19016       0.5582       0.5276
   1427.17490       0.6025       0.4688    1427.17490       0.6025       0.4687
   1427.15964       0.5474       0.5348    1427.15964       0.5474       0.5347
   1427.14438       0.5474       0.4913    1427.14438       0.5474       0.4912
   1427.12913       0.5643       0.4874    1427.12913       0.5643       0.4873
   1427.11387       0.5465       0.5358    1427.11387       0.5465       0.5357
   1427.09861       0.5846       0.5498    1427.09861       0.5846       0.5497
   1427.08335       0.5582       0.5282    1427.08335       0.5581       0.5281
   1427.06809       0.5797       0.5895    1427.06809       0.5797       0.5894
   1427.05283       0.5114       0.5168    1427.05283       0.5114       0.5167
   1427.03757       0.5169       0.5395    1427.03757       0.5169       0.5394
   1427.02231       0.5466       0.5605    1427.02231       0.5466       0.5604
   1427.00706       0.5673       0.5446    1427.00706       0.5673       0.5445
   1426.99180       0.5334       0.5633    1426.99180       0.5334       0.5632
   1426.97654       0.5344       0.4726    1426.97654       0.5344       0.4725
   1426.96128       0.5668       0.5308    1426.96128       0.5667       0.5307
   1426.94602       0.5109       0.5370    1426.94602       0.5109       0.5369
   1426.93076       0.5971       0.6348    1426.93076       0.5971       0.6347
   1426.91550       0.5354       0.5233    1426.91550       0.5354       0.5232
   1426.90024       0.5982       0.5234    1426.90024       0.5982       0.5233
   1426.88499       0.5211       0.5160    1426.88499       0.5211       0.5159
   1426.86973       0.5019       0.5224    1426.86973       0.5018       0.5223
   1426.85447       0.5812       0.5534    1426.85447       0.5812       0.5533
   1426.83921       0.5490       0.5002    1426.83921       0.5489       0.5001
   1426.82395       0.5376       0.5048    1426.82395       0.5376       0.5047
   1426.80869       0.5293       0.5201    1426.80869       0.5293       0.5200
   1426.79343       0.5482       0.5075    1426.79343       0.5482       0.5074
   1426.77817       0.5268       0.5318    1426.77817       0.5268       0.5316
   1426.76292       0.5841       0.4990    1426.76292       0.5841       0.4989
   1426.74766       0.5661       0.5889    1426.74766       0.5661       0.5887
   1426.73240       0.5987       0.5297    1426.73240       0.5987       0.5296
   1426.71714       0.5679       0.5372    1426.71714       0.5679       0.5371
   1426.70188       0.5425       0.5627    1426.70188       0.5425       0.5626
   1426.68662       0.5959       0.5214    1426.68662       0.5959       0.5213
   1426.67136       0.5332       0.5328    1426.67136       0.5332       0.5327
   1426.65610       0.5881       0.5107    1426.65610       0.5881       0.5106
   1426.64084       0.5737       0.5540    1426.64084       0.5736       0.5539
   1426.62559       0.5749       0.4843    1426.62559       0.5749       0.4842
   1426.61033       0.5806       0.5045    1426.61033       0.5806       0.5044
   1426.59507       0.5649       0.5104    1426.59507       0.5649       0.5103
   1426.57981       0.5776       0.5089    1426.57981       0.5776       0.5088
   1426.56455       0.5943       0.5965    1426.56455       0.5943       0.5964
   1426.54929       0.5711       0.5605    1426.54929       0.5711       0.5604
   1426.53403       0.5069       0.5064    1426.53403       0.5069       0.5063
   1426.51877       0.6050       0.5157    1426.51877       0.6050       0.5156
   1426.50352       0.5324       0.4678    1426.50352       0.5324       0.4677
   1426.48826       0.5843       0.4685    1426.48826       0.5843       0.4684
   1426.47300       0.5640       0.5465    1426.47300       0.5640       0.5464
   1426.45774       0.5685       0.5124    1426.45774       0.5685       0.5123
   1426.44248       0.5581       0.5501    1426.44248       0.5581       0.5500
   1426.42722       0.5667       0.5200    1426.42722       0.5667       0.5199
   1426.41196       0.5801       0.5680    1426.41196       0.5801       0.5679
   1426.39670       0.5567       0.5553    1426.39670       0.5566       0.5552
   1426.38145       0.5425       0.5116    1426.38145       0.5425       0.5115
   1426.36619       0.5278       0.4719    1426.36619       0.5278       0.4718
   1426.35093       0.5114       0.5143    1426.35093       0.5114       0.5142
   1426.33567       0.5307       0.4648    1426.33567       0.5307       0.4647
   1426.32041       0.5098       0.4611    1426.32041       0.5097       0.4610
   1426.30515       0.5303       0.4990    1426.30515       0.5303       0.4989
   1426.28989       0.5355       0.5127    1426.28989       0.5355       0.5126
   1426.27463       0.5023       0.4954    1426.27463       0.5023       0.4953
   1426.25937       0.5171       0.4612    1426.25937       0.5171       0.4611
   1426.24412       0.5251       0.5030    1426.24412       0.5251       0.5029
   1426.22886       0.5327       0.4884    1426.22886       0.5327       0.4883
   1426.21360       0.5364       0.4682    1426.21360       0.5364       0.4681
   1426.19834       0.5183       0.4856    1426.19834       0.5183       0.4856
   1426.18308       0.5193       0.5633    1426.18308       0.5193       0.5632
   1426.16782       0.5351       0.4969    1426.16782       0.5350       0.4968
   1426.15256       0.5502       0.4708    1426.15256       0.5502       0.4707
   1426.13730       0.5276       0.4121    1426.13730       0.5276       0.4120
   1426.12205       0.4651       0.4924    1426.12205       0.4651       0.4923
   1426.10679       0.5218       0.4589    1426.10679       0.5218       0.4588
   1426.09153       0.5357       0.4779    1426.09153       0.5357       0.4778
   1426.07627       0.5313       0.5052    1426.07627       0.5313       0.5051
   1426.06101       0.5419       0.4863    1426.06101       0.5419       0.4862
   1426.04575       0.5472       0.4964    1426.04575       0.5471       0.4963
   1426.03049       0.5472       0.4695    1426.03049       0.5472       0.4694
   1426.01523       0.5201       0.5253    1426.01523       0.5201       0.5252
   1425.99998       0.5095       0.5207    1425.99998       0.5095       0.5206
   1425.98472       0.5447       0.4821    1425.98472       0.5447       0.4820
   1425.96946       0.5145       0.4458    1425.96946       0.5145       0.4457
   1425.95420       0.5539       0.4770    1425.95420       0.5539       0.4769
   1425.93894       0.5143       0.4963    1425.93894       0.5143       0.4962
   1425.92368       0.5102       0.3805    1425.92368       0.5102       0.3804
   1425.90842       0.5927       0.4860    1425.90842       0.5926       0.4859
   1425.89316       0.4936       0.4064    1425.89316       0.4936       0.4063
   1425.87791       0.5199       0.4252    1425.87791       0.5199       0.4252
   1425.86265       0.5464       0.4570    1425.86265       0.5464       0.4569
   1425.84739       0.5305       0.4401    1425.84739       0.5304       0.4400
   1425.83213       0.5321       0.4524    1425.83213       0.5321       0.4523
   1425.81687       0.5215       0.3675    1425.81687       0.5214       0.3675
   1425.80161       0.5351       0.4732    1425.80161       0.5351       0.4731
   1425.78635       0.5007       0.3850    1425.78635       0.5007       0.3849
   1425.77109       0.5400       0.4787    1425.77109       0.5400       0.4786
   1425.75583       0.5096       0.4484    1425.75583       0.5096       0.4483
   1425.74058       0.4826       0.3719    1425.74058       0.4826       0.3718
   1425.72532       0.5138       0.4663    1425.72532       0.5138       0.4662
   1425.71006       0.5521       0.4223    1425.71006       0.5521       0.4222
   1425.69480       0.5141       0.3877    1425.69480       0.5141       0.3877
   1425.67954       0.4540       0.4575    1425.67954       0.4539       0.4574
   1425.66428       0.5469       0.4753    1425.66428       0.5469       0.4752
   1425.64902       0.4944       0.4295    1425.64902       0.4944       0.4294
   1425.63376       0.5216       0.4432    1425.63376       0.5215       0.4431
   1425.61851       0.4898       0.4264    1425.61851       0.4898       0.4263
   1425.60325       0.5379       0.4696    1425.60325       0.5379       0.4695
   1425.58799       0.5194       0.4784    1425.58799       0.5194       0.4783
   1425.57273       0.5223       0.4038    1425.57273       0.5223       0.4037
   1425.55747       0.5331       0.4182    1425.55747       0.5331       0.4181
   1425.54221       0.5787       0.3921    1425.54221       0.5787       0.3921
   1425.52695       0.5207       0.4634    1425.52695       0.5207       0.4633
   1425.51169       0.5410       0.3731    1425.51169       0.5410       0.3731
   1425.49644       0.5328       0.3749    1425.49644       0.5328       0.3748
   1425.48118       0.5381       0.4698    1425.48118       0.5381       0.4697
   1425.46592       0.4549       0.4301    1425.46592       0.4549       0.4300
   1425.45066       0.4627       0.4315    1425.45066       0.4627       0.4314
   1425.43540       0.4789       0.4236    1425.43540       0.4789       0.4235
   1425.42014       0.5107       0.4079    1425.42014       0.5107       0.4078
   1425.40488       0.5177       0.4385    1425.40488       0.5176       0.4384
   1425.38962       0.4878       0.3439    1425.38962       0.4878       0.3439
   1425.37437       0.5647       0.4205    1425.37437       0.5647       0.4204
   1425.35911       0.4568       0.3814    1425.35911       0.4568       0.3813
   1425.34385       0.4818       0.4103    1425.34385       0.4818       0.4102
   1425.32859       0.5178       0.3993    1425.32859       0.5178       0.3992
   1425.31333       0.5485       0.4016    1425.31333       0.5485       0.4015
   1425.29807       0.4507       0.3809    1425.29807       0.4507       0.3808
   1425.28281       0.5040       0.4092    1425.28281       0.5040       0.4091
   1425.26755       0.5096       0.4065    1425.26755       0.5096       0.4064
   1425.25229       0.5199       0.4906    1425.25229       0.5199       0.4905
   1425.23704       0.5064       0.3667    1425.23704       0.5064       0.3666
   1425.22178       0.4797       0.4160    1425.22178       0.4797       0.4159
   1425.20652       0.4936       0.4006    1425.20652       0.4936       0.4005
   1425.19126       0.5013       0.3617    1425.19126       0.5012       0.3616
   1425.17600       0.4957       0.3858    1425.17600       0.4957       0.3857
   1425.16074       0.5355       0.3496    1425.16074       0.5355       0.3495
   1425.14548       0.4978       0.3631    1425.14548       0.4977       0.3630
   1425.13022       0.5564       0.3770    1425.13022       0.5564       0.3770
   1425.11497       0.5204       0.4237    1425.11497       0.5204       0.4236
   1425.09971       0.5085       0.4309    1425.09971       0.5085       0.4308
   1425.08445       0.5287       0.3846    1425.08445       0.5287       0.3845
   1425.06919       0.4897       0.3709    1425.06919       0.4897       0.3708
   1425.05393       0.4855       0.3237    1425.05393       0.4855       0.3237
   1425.03867       0.5267       0.3753    1425.03867       0.5267       0.3752
   1425.02341       0.5264       0.3282    1425.02341       0.5264       0.3281
   1425.00815       0.5182       0.4023    1425.00815       0.5181       0.4023
   1424.99290       0.4649       0.3813    1424.99290       0.4649       0.3812
   1424.97764       0.5074       0.3401    1424.97764       0.5074       0.3400
   1424.96238       0.5167       0.4041    1424.96238       0.5167       0.4040
   1424.94712       0.4892       0.4053    1424.94712       0.4892       0.4052
   1424.93186       0.5114       0.3610    1424.93186       0.5114       0.3609
   1424.91660       0.4957       0.3918    1424.91660       0.4957       0.3917
   1424.90134       0.5546       0.3731    1424.90134       0.5546       0.3731
   1424.88608       0.4815       0.3683    1424.88608       0.4815       0.3683
   1424.87083       0.5174       0.3691    1424.87083       0.5174       0.3690
   1424.85557       0.5502       0.3725    1424.85557       0.5502       0.3725
   1424.84031       0.5165       0.3899    1424.84031       0.5165       0.3898
   1424.82505       0.5031       0.4043    1424.82505       0.5031       0.4043
   1424.80979       0.4936       0.4131    1424.80979       0.4936       0.4130
   1424.79453       0.5159       0.3405    1424.79453       0.5159       0.3405
   1424.77927       0.4987       0.3278    1424.77927       0.4987       0.3278
   1424.76401       0.4600       0.3683    1424.76401       0.4600       0.3682
   1424.74875       0.5316       0.3104    1424.74875       0.5316       0.3103
   1424.73350       0.5346       0.3726    1424.73350       0.5346       0.3725
   1424.71824       0.5157       0.3599    1424.71824       0.5157       0.3598
   1424.70298       0.4822       0.3325    1424.70298       0.4822       0.3324
   1424.68772       0.5049       0.3510    1424.68772       0.5048       0.3509
   1424.67246       0.5040       0.3129    1424.67246       0.5040       0.3128
   1424.65720       0.5386       0.3155    1424.65720       0.5386       0.3155
   1424.64194       0.5317       0.3628    1424.64194       0.5316       0.3627
   1424.62668       0.5173       0.3674    1424.62668       0.5173       0.3673
   1424.61143       0.4844       0.3201    1424.61143       0.4844       0.3200
   1424.59617       0.5271       0.3698    1424.59617       0.5271       0.3697
   1424.58091       0.4974       0.4292    1424.58091       0.4974       0.4291
   1424.56565       0.4990       0.3429    1424.56565       0.4990       0.3428
   1424.55039       0.5054       0.3752    1424.55039       0.5054       0.3751
   1424.53513       0.5166       0.3106    1424.53513       0.5166       0.3105
   1424.51987       0.5219       0.3200    1424.51987       0.5219       0.3199
   1424.50461       0.4831       0.3393    1424.50461       0.4831       0.3392
   1424.48936       0.5295       0.4253    1424.48936       0.5295       0.4253
   1424.47410       0.5345       0.3487    1424.47410       0.5345       0.3486
   1424.45884       0.5120       0.3322    1424.45884       0.5120       0.3321
   1424.44358       0.5136       0.2960    1424.44358       0.5136       0.2960
   1424.42832       0.5273       0.3638    1424.42832       0.5273       0.3638
   1424.41306       0.5342       0.3255    1424.41306       0.5342       0.3254
   1424.39780       0.5008       0.2723    1424.39780       0.5008       0.2722
   1424.38254       0.5263       0.3187    1424.38254       0.5263       0.3187
   1424.36729       0.4809       0.3212    1424.36729       0.4809       0.3211
   1424.35203       0.5002       0.3607    1424.35203       0.5002       0.3606
   1424.33677       0.5204       0.2941    1424.33677       0.5204       0.2940
   1424.32151       0.5104       0.3611    1424.32151       0.5104       0.3611
   1424.30625       0.5574       0.3426    1424.30625       0.5574       0.3425
   1424.29099       0.5127       0.3656    1424.29099       0.5126       0.3655
   1424.27573       0.5401       0.3323    1424.27573       0.5401       0.3323
   1424.26047       0.5261       0.3827    1424.26047       0.5261       0.3826
   1424.24521       0.5460       0.3370    1424.24521       0.5460       0.3369
   1424.22996       0.5410       0.3010    1424.22996       0.5410       0.3010
   1424.21470       0.5263       0.3188    1424.21470       0.5263       0.3188
   1424.19944       0.5072       0.2870    1424.19944       0.5072       0.2869
   1424.18418       0.5572       0.3018    1424.18418       0.5571       0.3018
   1424.16892       0.5674       0.3552    1424.16892       0.5674       0.3551
   1424.15366       0.5246       0.3399    1424.15366       0.5246       0.3398
   1424.13840       0.5593       0.3488    1424.13840       0.5593       0.3487
   1424.12314       0.5357       0.3023    1424.12314       0.5357       0.3023
   1424.10789       0.5549       0.3974    1424.10789       0.5549       0.3974
   1424.09263       0.5338       0.3776    1424.09263       0.5338       0.3775
   1424.07737       0.5683       0.3470    1424.07737       0.5683       0.3470
   1424.06211       0.5837       0.4786    1424.06211       0.5837       0.4785
   1424.04685       0.5457       0.2750    1424.04685       0.5457       0.2749
   1424.03159       0.5135       0.2923    1424.03159       0.5134       0.2923
   1424.01633       0.5674       0.3122    1424.01633       0.5674       0.3122
   1424.00107       0.5135       0.3227    1424.00107       0.5135       0.3226
   1423.98582       0.5285       0.3278    1423.98582       0.5285       0.3277
   1423.97056       0.5461       0.3762    1423.97056       0.5461       0.3761
   1423.95530       0.5594       0.3018    1423.95530       0.5593       0.3018
   1423.94004       0.5645       0.3741    1423.94004       0.5644       0.3740
   1423.92478       0.5594       0.3909    1423.92478       0.5594       0.3908
   1423.90952       0.5363       0.3355    1423.90952       0.5363       0.3354
   1423.89426       0.4987       0.3776    1423.89426       0.4987       0.3776
   1423.87900       0.5561       0.3593    1423.87900       0.5561       0.3592
   1423.86375       0.5555       0.3368    1423.86375       0.5555       0.3367
   1423.84849       0.5041       0.2842    1423.84849       0.5041       0.2842
   1423.83323       0.5298       0.3316    1423.83323       0.5298       0.3315
   1423.81797       0.5412       0.3874    1423.81797       0.5412       0.3874
   1423.80271       0.5983       0.3248    1423.80271       0.5982       0.3248
   1423.78745       0.5562       0.3717    1423.78745       0.5562       0.3716
   1423.77219       0.5622       0.3602    1423.77219       0.5622       0.3601
   1423.75693       0.5632       0.3100    1423.75693       0.5632       0.3099
   1423.74167       0.5877       0.3463    1423.74167       0.5877       0.3463
   1423.72642       0.5807       0.3813    1423.72642       0.5807       0.3812
   1423.71116       0.5500       0.3742    1423.71116       0.5500       0.3741
   1423.69590       0.5971       0.3784    1423.69590       0.5970       0.3784
   1423.68064       0.5936       0.2999    1423.68064       0.5936       0.2999
   1423.66538       0.5948       0.3677    1423.66538       0.5948       0.3676
   1423.65012       0.5370       0.4132    1423.65012       0.5370       0.4131
   1423.63486       0.6008       0.3504    1423.63486       0.6008       0.3503
   1423.61960       0.5972       0.3905    1423.61960       0.5972       0.3904
   1423.60435       0.5693       0.3407    1423.60435       0.5693       0.3407
   1423.58909       0.5837       0.3862    1423.58909       0.5837       0.3861
   1423.57383       0.5443       0.3498    1423.57383       0.5442       0.3497
   1423.55857       0.5747       0.3755    1423.55857       0.5747       0.3754
   1423.54331       0.5398       0.3397    1423.54331       0.5398       0.3396
   1423.52805       0.5679       0.3290    1423.52805       0.5679       0.3289
   1423.51279       0.5433       0.4182    1423.51279       0.5433       0.4181
   1423.49753       0.5369       0.3753    1423.49753       0.5369       0.3752
   1423.48228       0.5957       0.3797    1423.48228       0.5957       0.3796
   1423.46702       0.5914       0.3973    1423.46702       0.5914       0.3972
   1423.45176       0.5599       0.3589    1423.45176       0.5598       0.3588
   1423.43650       0.5665       0.3347    1423.43650       0.5665       0.3346
   1423.42124       0.6159       0.3425    1423.42124       0.6158       0.3425
   1423.40598       0.5820       0.4126    1423.40598       0.5820       0.4125
   1423.39072       0.6129       0.3600    1423.39072       0.6129       0.3599
   1423.37546       0.5998       0.3746    1423.37546       0.5998       0.3746
   1423.36021       0.5941       0.3487    1423.36021       0.5941       0.3486
   1423.34495       0.5907       0.3691    1423.34495       0.5907       0.3691
   1423.32969       0.5705       0.3423    1423.32969       0.5705       0.3422
   1423.31443       0.5577       0.3381    1423.31443       0.5577       0.3381
   1423.29917       0.6166       0.3376    1423.29917       0.6166       0.3376
   1423.28391       0.6046       0.3823    1423.28391       0.6045       0.3822
   1423.26865       0.5804       0.4008    1423.26865       0.5804       0.4007
   1423.25339       0.5914       0.3906    1423.25339       0.5914       0.3905
   1423.23813       0.5515       0.3635    1423.23813       0.5515       0.3635
   1423.22288       0.5363       0.3801    1423.22288       0.5363       0.3800
   1423.20762       0.5749       0.3569    1423.20762       0.5749       0.3569
   1423.19236       0.5921       0.3766    1423.19236       0.5921       0.3766
   1423.17710       0.6161       0.4053    1423.17710       0.6161       0.4053
   1423.16184       0.5933       0.4088    1423.16184       0.5933       0.4087
   1423.14658       0.5521       0.3852    1423.14658       0.5520       0.3852
   1423.13132       0.6047       0.4084    1423.13132       0.6047       0.4083
   1423.11606       0.5724       0.4177    1423.11606       0.5724       0.4176
   1423.10081       0.5583       0.3672    1423.10081       0.5583       0.3671
   1423.08555       0.5701       0.4531    1423.08555       0.5701       0.4530
   1423.07029       0.5536       0.3692    1423.07029       0.5536       0.3691
   1423.05503       0.6130       0.3741    1423.05503       0.6130       0.3741
   1423.03977       0.5793       0.4426    1423.03977       0.5793       0.4425
   1423.02451       0.6351       0.3544    1423.02451       0.6351       0.3544
   1423.00925       0.5800       0.3596    1423.00925       0.5799       0.3595
   1422.99399       0.5982       0.3916    1422.99399       0.5982       0.3915
   1422.97874       0.5965       0.3630    1422.97874       0.5965       0.3629
   1422.96348       0.5884       0.3667    1422.96348       0.5884       0.3666
   1422.94822       0.6081       0.4085    1422.94822       0.6081       0.4085
   1422.93296       0.6464       0.4532    1422.93296       0.6464       0.4532
   1422.91770       0.6211       0.4473    1422.91770       0.6210       0.4472
   1422.90244       0.5542       0.4047    1422.90244       0.5542       0.4046
   1422.88718       0.5936       0.4613    1422.88718       0.5936       0.4612
   1422.87192       0.5781       0.4662    1422.87192       0.5781       0.4661
   1422.85667       0.6330       0.4229    1422.85667       0.6330       0.4228
   1422.84141       0.6471       0.4064    1422.84141       0.6471       0.4063
   1422.82615       0.6021       0.4634    1422.82615       0.6021       0.4633
   1422.81089       0.6410       0.4629    1422.81089       0.6410       0.4628
   1422.79563       0.6273       0.4256    1422.79563       0.6273       0.4256
   1422.78037       0.6013       0.3991    1422.78037       0.6013       0.3990
   1422.76511       0.6354       0.4204    1422.76511       0.6354       0.4203
   1422.74985       0.6238       0.4337    1422.74985       0.6237       0.4336
   1422.73459       0.6631       0.4424    1422.73459       0.6631       0.4423
   1422.71934       0.6444       0.4092    1422.71934       0.6444       0.4091
   1422.70408       0.5688       0.4628    1422.70408       0.5688       0.4627
   1422.68882       0.6210       0.4088    1422.68882       0.6210       0.4087
   1422.67356       0.6216       0.4534    1422.67356       0.6216       0.4533
   1422.65830       0.6284       0.4722    1422.65830       0.6284       0.4721
   1422.64304       0.6388       0.4692    1422.64304       0.6388       0.4691
   1422.62778       0.6163       0.4170    1422.62778       0.6163       0.4169
   1422.61252       0.6474       0.4653    1422.61252       0.6473       0.4652
   1422.59727       0.6380       0.4756    1422.59727       0.6380       0.4755
   1422.58201       0.6328       0.4427    1422.58201       0.6328       0.4426
   1422.56675       0.6068       0.4160    1422.56675       0.6068       0.4159
   1422.55149       0.5859       0.4490    1422.55149       0.5858       0.4489
   1422.53623       0.6699       0.4563    1422.53623       0.6699       0.4562
   1422.52097       0.6481       0.4323    1422.52097       0.6481       0.4322
   1422.50571       0.5494       0.4816    1422.50571       0.5494       0.4815
   1422.49045       0.6160       0.4034    1422.49045       0.6160       0.4033
   1422.47520       0.5932       0.3743    1422.47520       0.5932       0.3743
   1422.45994       0.6664       0.4719    1422.45994       0.6664       0.4718
   1422.44468       0.6116       0.4849    1422.44468       0.6116       0.4848
   1422.42942       0.6223       0.4685    1422.42942       0.6222       0.4684
   1422.41416       0.5892       0.4441    1422.41416       0.5892       0.4440
   1422.39890       0.6304       0.4787    1422.39890       0.6304       0.4786
   1422.38364       0.6267       0.5389    1422.38364       0.6267       0.5388
   1422.36838       0.6588       0.4660    1422.36838       0.6588       0.4660
   1422.35312       0.6307       0.5309    1422.35312       0.6307       0.5307
   1422.33787       0.6207       0.4500    1422.33787       0.6206       0.4499
   1422.32261       0.6689       0.4858    1422.32261       0.6689       0.4857
   1422.30735       0.6504       0.5195    1422.30735       0.6504       0.5194
   1422.29209       0.6735       0.4851    1422.29209       0.6735       0.4850
   1422.27683       0.6815       0.4748    1422.27683       0.6814       0.4747
   1422.26157       0.5999       0.5097    1422.26157       0.5999       0.5096
   1422.24631       0.6125       0.4326    1422.24631       0.6125       0.4325
   1422.23105       0.5957       0.4893    1422.23105       0.5957       0.4892
   1422.21580       0.6324       0.4823    1422.21580       0.6324       0.4822
   1422.20054       0.6291       0.4911    1422.20054       0.6291       0.4910
   1422.18528       0.5766       0.4716    1422.18528       0.5766       0.4715
   1422.17002       0.6211       0.4738    1422.17002       0.6211       0.4737
   1422.15476       0.6511       0.4778    1422.15476       0.6511       0.4777
   1422.13950       0.6468       0.4811    1422.13950       0.6468       0.4810
   1422.12424       0.6307       0.5468    1422.12424       0.6307       0.5467
   1422.10898       0.6450       0.4770    1422.10898       0.6450       0.4769
   1422.09373       0.6411       0.5309    1422.09373       0.6411       0.5308
   1422.07847       0.6254       0.4933    1422.07847       0.6254       0.4932
   1422.06321       0.6877       0.4975    1422.06321       0.6877       0.4974
   1422.04795       0.6252       0.5127    1422.04795       0.6251       0.5126
   1422.03269       0.6377       0.4742    1422.03269       0.6376       0.4741
   1422.01743       0.6540       0.5142    1422.01743       0.6540       0.5141
   1422.00217       0.5992       0.4740    1422.00217       0.5992       0.4739
   1421.98691       0.6297       0.4744    1421.98691       0.6297       0.4743
   1421.97166       0.5670       0.5056    1421.97166       0.5670       0.5055
   1421.95640       0.6043       0.5172    1421.95640       0.6043       0.5171
   1421.94114       0.6202       0.4876    1421.94114       0.6202       0.4875
   1421.92588       0.6423       0.4929    1421.92588       0.6423       0.4928
   1421.91062       0.6669       0.4896    1421.91062       0.6669       0.4895
   1421.89536       0.6070       0.5002    1421.89536       0.6070       0.5001
   1421.88010       0.6403       0.5001    1421.88010       0.6403       0.5000
   1421.86484       0.6210       0.5253    1421.86484       0.6210       0.5252
   1421.84958       0.6183       0.5224    1421.84958       0.6183       0.5223
   1421.83433       0.6556       0.4703    1421.83433       0.6556       0.4702
   1421.81907       0.5985       0.5215    1421.81907       0.5985       0.5214
   1421.80381       0.5993       0.4533    1421.80381       0.5993       0.4532
   1421.78855       0.6576       0.5379    1421.78855       0.6576       0.5377
   1421.77329       0.6043       0.5631    1421.77329       0.6043       0.5630
   1421.75803       0.6114       0.4560    1421.75803       0.6113       0.4560
   1421.74277       0.5803       0.5231    1421.74277       0.5803       0.5230
   1421.72751       0.6275       0.5327    1421.72751       0.6275       0.5326
   1421.71226       0.6115       0.5040    1421.71226       0.6115       0.5039
   1421.69700       0.5960       0.4873    1421.69700       0.5960       0.4872
   1421.68174       0.6259       0.5259    1421.68174       0.6259       0.5258
   1421.66648       0.6049       0.5284    1421.66648       0.6049       0.5283
   1421.65122       0.6316       0.5244    1421.65122       0.6316       0.5243
   1421.63596       0.6435       0.5204    1421.63596       0.6434       0.5203
   1421.62070       0.6069       0.5423    1421.62070       0.6069       0.5422
   1421.60544       0.6596       0.5787    1421.60544       0.6596       0.5786
   1421.59019       0.5990       0.5001    1421.59019       0.5990       0.5000
   1421.57493       0.6030       0.5453    1421.57493       0.6030       0.5452
   1421.55967       0.6057       0.5350    1421.55967       0.6056       0.5349
   1421.54441       0.6179       0.5395    1421.54441       0.6179       0.5394
   1421.52915       0.5947       0.5434    1421.52915       0.5947       0.5433
   1421.51389       0.6198       0.5459    1421.51389       0.6198       0.5458
   1421.49863       0.6711       0.5370    1421.49863       0.6710       0.5369
   1421.48337       0.5955       0.5457    1421.48337       0.5955       0.5456
   1421.46812       0.6605       0.4968    1421.46812       0.6605       0.4967
   1421.45286       0.6314       0.5415    1421.45286       0.6313       0.5414
   1421.43760       0.5878       0.5081    1421.43760       0.5878       0.5080
   1421.42234       0.6563       0.4996    1421.42234       0.6563       0.4995
   1421.40708       0.6223       0.4724    1421.40708       0.6223       0.4723
   1421.39182       0.5908       0.4957    1421.39182       0.5908       0.4956
   1421.37656       0.6732       0.4739    1421.37656       0.6732       0.4738
   1421.36130       0.6262       0.4863    1421.36130       0.6262       0.4862
   1421.34604       0.5877       0.4785    1421.34604       0.5877       0.4784
   1421.33079       0.6047       0.5185    1421.33079       0.6047       0.5184
   1421.31553       0.5988       0.5263    1421.31553       0.5988       0.5262
   1421.30027       0.6116       0.5371    1421.30027       0.6116       0.5370
   1421.28501       0.5944       0.5504    1421.28501       0.5944       0.5503
   1421.26975       0.6299       0.4676    1421.26975       0.6299       0.4675
   1421.25449       0.6006       0.5210    1421.25449       0.6005       0.5209
   1421.23923       0.6098       0.5394    1421.23923       0.6097       0.5393
   1421.22397       0.6158       0.5077    1421.22397       0.6158       0.5076
   1421.20872       0.5802       0.4632    1421.20872       0.5802       0.4631
   1421.19346       0.5611       0.4861    1421.19346       0.5611       0.4860
   1421.17820       0.6402       0.5270    1421.17820       0.6402       0.5269
   1421.16294       0.6318       0.4956    1421.16294       0.6318       0.4955
   1421.14768       0.6376       0.5018    1421.14768       0.6376       0.5017
   1421.13242       0.6391       0.5078    1421.13242       0.6390       0.5077
   1421.11716       0.6098       0.4962    1421.11716       0.6098       0.4961
   1421.10190       0.6455       0.5137    1421.10190       0.6455       0.5136
   1421.08665       0.5985       0.5055    1421.08665       0.5985       0.5054
   1421.07139       0.5960       0.5084    1421.07139       0.5960       0.5083
   1421.05613       0.5931       0.4209    1421.05613       0.5931       0.4208
   1421.04087       0.6194       0.5359    1421.04087       0.6194       0.5358
   1421.02561       0.6072       0.5038    1421.02561       0.6072       0.5037
   1421.01035       0.5792       0.4741    1421.01035       0.5792       0.4740
   1420.99509       0.5698       0.4729    1420.99509       0.5698       0.4728
   1420.97983       0.5745       0.5033    1420.97983       0.5745       0.5032
   1420.96458       0.6029       0.4743    1420.96458       0.6029       0.4742
   1420.94932       0.5604       0.4907    1420.94932       0.5604       0.4906
   1420.93406       0.5866       0.4536    1420.93406       0.5866       0.4536
   1420.91880       0.5788       0.4602    1420.91880       0.5787       0.4601
   1420.90354       0.5912       0.4964    1420.90354       0.5912       0.4963
   1420.88828       0.6058       0.4984    1420.88828       0.6058       0.4983
   1420.87302       0.6173       0.5143    1420.87302       0.6173       0.5142
   1420.85776       0.5828       0.4695    1420.85776       0.5828       0.4694
   1420.84250       0.5381       0.4390    1420.84250       0.5381       0.4389
   1420.82725       0.5306       0.3560    1420.82725       0.5306       0.3559
   1420.81199       0.5510       0.4101    1420.81199       0.5510       0.4100
   1420.79673       0.5329       0.4656    1420.79673       0.5329       0.4655
   1420.78147       0.5503       0.4204    1420.78147       0.5503       0.4204
   1420.76621       0.6104       0.4493    1420.76621       0.6104       0.4492
   1420.75095       0.5827       0.5330    1420.75095       0.5827       0.5329
   1420.73569       0.6363       0.5475    1420.73569       0.6363       0.5474
   1420.72043       0.6183       0.4868    1420.72043       0.6183       0.4867
   1420.70518       0.6077       0.5130    1420.70518       0.6077       0.5129
   1420.68992       0.6293       0.5733    1420.68992       0.6293       0.5732
   1420.67466       0.6458       0.5604    1420.67466       0.6458       0.5603
   1420.65940       0.6830       0.5604    1420.65940       0.6830       0.5603
   1420.64414       0.6704       0.5576    1420.64414       0.6704       0.5575
   1420.62888       0.6809       0.5552    1420.62888       0.6809       0.5551
   1420.61362       0.7064       0.6225    1420.61362       0.7064       0.6224
   1420.59836       0.7367       0.6827    1420.59836       0.7367       0.6825
   1420.58311       0.7363       0.7428    1420.58311       0.7362       0.7426
   1420.56785       0.7529       0.7401    1420.56785       0.7529       0.7399
   1420.55259       0.7188       0.7037    1420.55259       0.7188       0.7036
   1420.53733       0.4987       0.4642    1420.53733       0.4987       0.4641
   1420.52207       0.2909      -0.0028    1420.52207       0.2909      -0.0028
   1420.50681      -0.1000      -0.4096    1420.50681      -0.1000      -0.4096
   1420.49155      -0.1763      -0.5863    1420.49155      -0.1763      -0.5861
   1420.47629      -0.2349      -0.5512    1420.47629      -0.2349      -0.5511
   1420.46104      -0.3949      -0.7741    1420.46104      -0.3949      -0.7739
   1420.44578      -2.0569      -2.4326    1420.44578      -2.0568      -2.4321
   1420.43052      -1.9621      -2.6034    1420.43052      -1.9621      -2.6029
   1420.41526      -2.0951      -3.5419    1420.41526      -2.0951      -3.5412
   1420.40000      -2.2400      -3.1403    1420.40000      -2.2399      -3.1397
   1420.38474      -0.2739      -0.4193    1420.38474      -0.2739      -0.4193
   1420.36948       3.5060       4.5298    1420.36948       3.5059       4.5289
   1420.35422       3.2491       4.2064    1420.35422       3.2490       4.2056
   1420.33896       1.3215       1.4106    1420.33896       1.3215       1.4103
   1420.32371       1.6898       1.9136    1420.32371       1.6898       1.9132
   1420.30845       1.0364       1.0929    1420.30845       1.0363       1.0927
   1420.29319       0.7334       0.6988    1420.29319       0.7334       0.6986
   1420.27793       0.6079       0.5809    1420.27793       0.6079       0.5808
   1420.26267       0.5634       0.5699    1420.26267       0.5633       0.5698
   1420.24741       0.6069       0.5114    1420.24741       0.6069       0.5113
   1420.23215       0.6104       0.4251    1420.23215       0.6104       0.4250
   1420.21689       0.5763       0.4441    1420.21689       0.5763       0.4440
   1420.20164       0.5597       0.4360    1420.20164       0.5597       0.4359
   1420.18638       0.5451       0.4969    1420.18638       0.5450       0.4968
   1420.17112       0.5652       0.4904    1420.17112       0.5652       0.4903
   1420.15586       0.5625       0.4934    1420.15586       0.5625       0.4933
   1420.14060       0.5614       0.4827    1420.14060       0.5614       0.4826
   1420.12534       0.5715       0.4578    1420.12534       0.5715       0.4578
   1420.11008       0.5585       0.4714    1420.11008       0.5585       0.4714
   1420.09482       0.5983       0.5083    1420.09482       0.5983       0.5082
   1420.07957       0.5358       0.4299    1420.07957       0.5358       0.4298
   1420.06431       0.5727       0.4516    1420.06431       0.5727       0.4515
   1420.04905       0.6047       0.4819    1420.04905       0.6046       0.4818
   1420.03379       0.5620       0.4335    1420.03379       0.5620       0.4334
   1420.01853       0.5599       0.5273    1420.01853       0.5599       0.5272
   1420.00327       0.5733       0.4535    1420.00327       0.5733       0.4535
   1419.98801       0.6009       0.4704    1419.98801       0.6009       0.4703
   1419.97275       0.5817       0.5072    1419.97275       0.5817       0.5071
   1419.95750       0.5502       0.5324    1419.95750       0.5502       0.5323
   1419.94224       0.5769       0.5253    1419.94224       0.5769       0.5252
   1419.92698       0.6265       0.4793    1419.92698       0.6265       0.4792
   1419.91172       0.6061       0.4673    1419.91172       0.6060       0.4672
   1419.89646       0.6709       0.4390    1419.89646       0.6709       0.4389
   1419.88120       0.5977       0.4772    1419.88120       0.5977       0.4771
   1419.86594       0.5771       0.4665    1419.86594       0.5771       0.4664
   1419.85068       0.5721       0.4583    1419.85068       0.5721       0.4582
   1419.83542       0.5614       0.4464    1419.83542       0.5613       0.4464
   1419.82017       0.6079       0.4628    1419.82017       0.6079       0.4627
   1419.80491       0.5814       0.4416    1419.80491       0.5814       0.4415
   1419.78965       0.6319       0.4833    1419.78965       0.6319       0.4832
   1419.77439       0.5787       0.4754    1419.77439       0.5787       0.4753
   1419.75913       0.5723       0.4873    1419.75913       0.5722       0.4872
   1419.74387       0.6499       0.4772    1419.74387       0.6498       0.4771
   1419.72861       0.5951       0.4481    1419.72861       0.5951       0.4480
   1419.71335       0.5830       0.4634    1419.71335       0.5830       0.4633
   1419.69810       0.5839       0.4129    1419.69810       0.5839       0.4128
   1419.68284       0.5598       0.4533    1419.68284       0.5598       0.4532
   1419.66758       0.5736       0.4473    1419.66758       0.5736       0.4473
   1419.65232       0.6202       0.4671    1419.65232       0.6202       0.4670
   1419.63706       0.5922       0.3959    1419.63706       0.5922       0.3958
   1419.62180       0.6012       0.4333    1419.62180       0.6012       0.4332
   1419.60654       0.5953       0.4200    1419.60654       0.5953       0.4199
   1419.59128       0.6258       0.4245    1419.59128       0.6258       0.4244
   1419.57603       0.6207       0.4015    1419.57603       0.6207       0.4014
   1419.56077       0.5940       0.4921    1419.56077       0.5940       0.4920
   1419.54551       0.5730       0.4215    1419.54551       0.5730       0.4215
   1419.53025       0.5801       0.4321    1419.53025       0.5800       0.4320
   1419.51499       0.5971       0.4762    1419.51499       0.5971       0.4761
   1419.49973       0.6007       0.4274    1419.49973       0.6007       0.4273
   1419.48447       0.5817       0.4409    1419.48447       0.5817       0.4408
   1419.46921       0.6042       0.4335    1419.46921       0.6042       0.4334
   1419.45396       0.6173       0.4372    1419.45396       0.6173       0.4371
   1419.43870       0.5911       0.4768    1419.43870       0.5911       0.4767
   1419.42344       0.6151       0.4483    1419.42344       0.6150       0.4482
   1419.40818       0.6149       0.4267    1419.40818       0.6149       0.4266
   1419.39292       0.6051       0.4347    1419.39292       0.6050       0.4346
   1419.37766       0.5708       0.3354    1419.37766       0.5707       0.3353
   1419.36240       0.6116       0.4637    1419.36240       0.6115       0.4636
   1419.34714       0.5626       0.4419    1419.34714       0.5626       0.4418
   1419.33188       0.5620       0.4412    1419.33188       0.5620       0.4411
   1419.31663       0.6285       0.3984    1419.31663       0.6285       0.3983
   1419.30137       0.5542       0.3955    1419.30137       0.5542       0.3954
   1419.28611       0.5546       0.3848    1419.28611       0.5546       0.3847
   1419.27085       0.6523       0.5047    1419.27085       0.6523       0.5046
   1419.25559       0.5835       0.3634    1419.25559       0.5834       0.3633
   1419.24033       0.5679       0.3520    1419.24033       0.5679       0.3519
   1419.22507       0.5901       0.3721    1419.22507       0.5901       0.3720
   1419.20981       0.5674       0.3929    1419.20981       0.5674       0.3928
   1419.19456       0.5613       0.4096    1419.19456       0.5612       0.4095
   1419.17930       0.5509       0.4124    1419.17930       0.5509       0.4124
   1419.16404       0.5993       0.3341    1419.16404       0.5993       0.3340
   1419.14878       0.6026       0.3823    1419.14878       0.6026       0.3822
   1419.13352       0.6084       0.3537    1419.13352       0.6084       0.3536
   1419.11826       0.5717       0.3637    1419.11826       0.5717       0.3636
   1419.10300       0.5917       0.3573    1419.10300       0.5917       0.3572
   1419.08774       0.5974       0.3637    1419.08774       0.5974       0.3637
   1419.07249       0.5954       0.4286    1419.07249       0.5954       0.4285
   1419.05723       0.5947       0.3496    1419.05723       0.5947       0.3495
   1419.04197       0.5771       0.3247    1419.04197       0.5771       0.3246
   1419.02671       0.5977       0.3482    1419.02671       0.5977       0.3482
   1419.01145       0.5949       0.3379    1419.01145       0.5949       0.3378
   1418.99619       0.5819       0.3620    1418.99619       0.5819       0.3620
   1418.98093       0.5849       0.3724    1418.98093       0.5849       0.3723
   1418.96567       0.6101       0.3491    1418.96567       0.6100       0.3491
   1418.95042       0.5799       0.3087    1418.95042       0.5799       0.3086
   1418.93516       0.5899       0.3451    1418.93516       0.5899       0.3450
   1418.91990       0.5961       0.3700    1418.91990       0.5961       0.3699
   1418.90464       0.5607       0.3093    1418.90464       0.5607       0.3092
   1418.88938       0.5921       0.3044    1418.88938       0.5920       0.3044
   1418.87412       0.6028       0.3263    1418.87412       0.6028       0.3263
   1418.85886       0.5811       0.3334    1418.85886       0.5811       0.3333
   1418.84360       0.5615       0.3413    1418.84360       0.5615       0.3412
   1418.82834       0.5827       0.3157    1418.82834       0.5827       0.3157
   1418.81309       0.5775       0.3276    1418.81309       0.5775       0.3275
   1418.79783       0.5337       0.3007    1418.79783       0.5337       0.3007
   1418.78257       0.5742       0.2900    1418.78257       0.5742       0.2900
   1418.76731       0.5866       0.3093    1418.76731       0.5866       0.3093
   1418.75205       0.5918       0.3024    1418.75205       0.5917       0.3023
   1418.73679       0.6162       0.3215    1418.73679       0.6161       0.3214
   1418.72153       0.5735       0.2853    1418.72153       0.5735       0.2852
   1418.70627       0.5344       0.3482    1418.70627       0.5343       0.3481
   1418.69102       0.5540       0.3022    1418.69102       0.5540       0.3021
   1418.67576       0.6258       0.3845    1418.67576       0.6258       0.3844
   1418.66050       0.5471       0.3465    1418.66050       0.5471       0.3465
   1418.64524       0.5731       0.3819    1418.64524       0.5731       0.3818
   1418.62998       0.6180       0.2943    1418.62998       0.6180       0.2942
   1418.61472       0.5967       0.2670    1418.61472       0.5967       0.2669
   1418.59946       0.5857       0.3378    1418.59946       0.5857       0.3377
   1418.58420       0.5601       0.2836    1418.58420       0.5601       0.2835
   1418.56895       0.5886       0.2888    1418.56895       0.5886       0.2888
   1418.55369       0.5849       0.3319    1418.55369       0.5849       0.3318
   1418.53843       0.6281       0.2653    1418.53843       0.6281       0.2653
   1418.52317       0.5662       0.2728    1418.52317       0.5661       0.2727
   1418.50791       0.6275       0.3026    1418.50791       0.6275       0.3026
   1418.49265       0.5618       0.2726    1418.49265       0.5618       0.2726
   1418.47739       0.5724       0.2491    1418.47739       0.5723       0.2491
   1418.46213       0.6107       0.2968    1418.46213       0.6107       0.2967
   1418.44687       0.6061       0.2467    1418.44687       0.6061       0.2466
   1418.43162       0.5706       0.3134    1418.43162       0.5705       0.3134
   1418.41636       0.6142       0.2734    1418.41636       0.6142       0.2733
   1418.40110       0.5599       0.3222    1418.40110       0.5599       0.3221
   1418.38584       0.5725       0.3469    1418.38584       0.5725       0.3469
   1418.37058       0.5888       0.2951    1418.37058       0.5888       0.2950
   1418.35532       0.6046       0.2647    1418.35532       0.6046       0.2647
   1418.34006       0.5916       0.2619    1418.34006       0.5916       0.2618
   1418.32480       0.5634       0.3144    1418.32480       0.5634       0.3143
   1418.30955       0.6087       0.2190    1418.30955       0.6087       0.2190
   1418.29429       0.5986       0.3103    1418.29429       0.5986       0.3102
   1418.27903       0.6039       0.3037    1418.27903       0.6039       0.3037
   1418.26377       0.5894       0.2401    1418.26377       0.5894       0.2400
   1418.24851       0.6259       0.1762    1418.24851       0.6259       0.1762
   1418.23325       0.6149       0.3225    1418.23325       0.6149       0.3225
   1418.21799       0.6202       0.3038    1418.21799       0.6202       0.3037
   1418.20273       0.6334       0.2269    1418.20273       0.6334       0.2269
   1418.18748       0.6237       0.2273    1418.18748       0.6237       0.2273
   1418.17222       0.5959       0.2231    1418.17222       0.5959       0.2230
   1418.15696       0.5782       0.2037    1418.15696       0.5782       0.2037
   1418.14170       0.5712       0.2227    1418.14170       0.5712       0.2227
   1418.12644       0.5555       0.2438    1418.12644       0.5555       0.2437
   1418.11118       0.5888       0.2404    1418.11118       0.5888       0.2404
   1418.09592       0.6110       0.2811    1418.09592       0.6110       0.2810
   1418.08066       0.6555       0.2702    1418.08066       0.6555       0.2701
   1418.06541       0.5657       0.3448    1418.06541       0.5656       0.3447
   1418.05015       0.5995       0.2810    1418.05015       0.5995       0.2809
   1418.03489       0.5693       0.3341    1418.03489       0.5693       0.3340
   1418.01963       0.5706       0.2370    1418.01963       0.5706       0.2369
   1418.00437       0.5865       0.2250    1418.00437       0.5865       0.2250
   1417.98911       0.6046       0.2116    1417.98911       0.6046       0.2116
   1417.97385       0.6131       0.2351    1417.97385       0.6131       0.2350
   1417.95859       0.6087       0.2909    1417.95859       0.6087       0.2909
   1417.94333       0.5961       0.2533    1417.94333       0.5961       0.2532
   1417.92808       0.6058       0.2509    1417.92808       0.6058       0.2508
   1417.91282       0.5580       0.2576    1417.91282       0.5580       0.2576
   1417.89756       0.5976       0.2335    1417.89756       0.5976       0.2335
   1417.88230       0.5389       0.2425    1417.88230       0.5389       0.2424
   1417.86704       0.5610       0.1975    1417.86704       0.5610       0.1974
   1417.85178       0.6165       0.2364    1417.85178       0.6165       0.2363
   1417.83652       0.5919       0.2178    1417.83652       0.5919       0.2178
   1417.82126       0.6018       0.2364    1417.82126       0.6018       0.2364
   1417.80601       0.5424       0.2896    1417.80601       0.5424       0.2895
   1417.79075       0.6086       0.2847    1417.79075       0.6086       0.2846
   1417.77549       0.6192       0.2471    1417.77549       0.6192       0.2470
   1417.76023       0.6110       0.2625    1417.76023       0.6110       0.2624
   1417.74497       0.6085       0.2595    1417.74497       0.6085       0.2594
   1417.72971       0.6459       0.1686    1417.72971       0.6459       0.1686
   1417.71445       0.6115       0.2486    1417.71445       0.6115       0.2486
   1417.69919       0.6202       0.2996    1417.69919       0.6202       0.2995
   1417.68394       0.6015       0.2348    1417.68394       0.6015       0.2347
   1417.66868       0.6250       0.2669    1417.66868       0.6250       0.2668
   1417.65342       0.6001       0.2019    1417.65342       0.6000       0.2019
   1417.63816       0.5740       0.1685    1417.63816       0.5740       0.1684
   1417.62290       0.5746       0.3020    1417.62290       0.5746       0.3020
   1417.60764       0.6007       0.2533    1417.60764       0.6007       0.2533
   1417.59238       0.5570       0.2227    1417.59238       0.5570       0.2227
   1417.57712       0.5962       0.1949    1417.57712       0.5962       0.1949
   1417.56187       0.6195       0.1965    1417.56187       0.6195       0.1964
   1417.54661       0.5479       0.2654    1417.54661       0.5479       0.2653
   1417.53135       0.5832       0.2561    1417.53135       0.5832       0.2560
   1417.51609       0.6470       0.2159    1417.51609       0.6470       0.2159
   1417.50083       0.6406       0.2240    1417.50083       0.6406       0.2240
   1417.48557       0.6077       0.2901    1417.48557       0.6076       0.2900
   1417.47031       0.5751       0.2297    1417.47031       0.5750       0.2297
   1417.45505       0.6039       0.2584    1417.45505       0.6039       0.2584
   1417.43979       0.6299       0.1945    1417.43979       0.6299       0.1944
   1417.42454       0.6573       0.2137    1417.42454       0.6573       0.2137
   1417.40928       0.6471       0.2131    1417.40928       0.6471       0.2131
   1417.39402       0.6519       0.1508    1417.39402       0.6519       0.1508
   1417.37876       0.6179       0.2214    1417.37876       0.6179       0.2214
   1417.36350       0.6414       0.2574    1417.36350       0.6414       0.2573
   1417.34824       0.5929       0.2627    1417.34824       0.5929       0.2627
   1417.33298       0.5923       0.2278    1417.33298       0.5923       0.2278
   1417.31772       0.5588       0.2468    1417.31772       0.5588       0.2468
   1417.30247       0.6251       0.2420    1417.30247       0.6251       0.2420
   1417.28721       0.6240       0.2280    1417.28721       0.6240       0.2279
   1417.27195       0.6555       0.2334    1417.27195       0.6555       0.2334
   1417.25669       0.6381       0.2147    1417.25669       0.6381       0.2147
   1417.24143       0.6764       0.2822    1417.24143       0.6764       0.2822
   1417.22617       0.6329       0.2931    1417.22617       0.6329       0.2930
   1417.21091       0.6144       0.2868    1417.21091       0.6144       0.2868
   1417.19565       0.6443       0.2600    1417.19565       0.6443       0.2599
   1417.18040       0.6118       0.2803    1417.18040       0.6118       0.2803
   1417.16514       0.6544       0.2363    1417.16514       0.6544       0.2362
   1417.14988       0.6280       0.2422    1417.14988       0.6280       0.2422
   1417.13462       0.6675       0.3147    1417.13462       0.6674       0.3146
   1417.11936       0.6281       0.2513    1417.11936       0.6281       0.2512
   1417.10410       0.6129       0.2928    1417.10410       0.6128       0.2927
   1417.08884       0.6260       0.2794    1417.08884       0.6260       0.2793
   1417.07358       0.5920       0.2814    1417.07358       0.5919       0.2813
   1417.05833       0.6517       0.2535    1417.05833       0.6517       0.2535
   1417.04307       0.6352       0.2680    1417.04307       0.6352       0.2680
   1417.02781       0.6030       0.2553    1417.02781       0.6030       0.2552
   1417.01255       0.6628       0.2420    1417.01255       0.6628       0.2419
   1416.99729       0.6515       0.2386    1416.99729       0.6515       0.2385
   1416.98203       0.6496       0.2220    1416.98203       0.6496       0.2220
   1416.96677       0.6594       0.2353    1416.96677       0.6593       0.2352
   1416.95151       0.6156       0.3427    1416.95151       0.6156       0.3426
   1416.93625       0.6226       0.2694    1416.93625       0.6226       0.2693
   1416.92100       0.6697       0.2852    1416.92100       0.6697       0.2851
   1416.90574       0.6690       0.2405    1416.90574       0.6690       0.2405
   1416.89048       0.6622       0.3214    1416.89048       0.6621       0.3213
   1416.87522       0.6593       0.3052    1416.87522       0.6593       0.3051
   1416.85996       0.6604       0.2616    1416.85996       0.6604       0.2615
   1416.84470       0.6278       0.2806    1416.84470       0.6278       0.2806
   1416.82944       0.6550       0.3030    1416.82944       0.6550       0.3030
   1416.81418       0.6601       0.2119    1416.81418       0.6601       0.2118
   1416.79893       0.6853       0.2762    1416.79893       0.6853       0.2761
   1416.78367       0.7054       0.3166    1416.78367       0.7054       0.3166
   1416.76841       0.6177       0.2798    1416.76841       0.6177       0.2798
   1416.75315       0.6721       0.2979    1416.75315       0.6720       0.2978
   1416.73789       0.6581       0.2763    1416.73789       0.6581       0.2763
   1416.72263       0.6240       0.3403    1416.72263       0.6240       0.3402
   1416.70737       0.6453       0.3041    1416.70737       0.6453       0.3040
   1416.69211       0.6299       0.3149    1416.69211       0.6299       0.3148
   1416.67686       0.6783       0.3617    1416.67686       0.6783       0.3617
   1416.66160       0.6970       0.3281    1416.66160       0.6969       0.3280
   1416.64634       0.6675       0.2933    1416.64634       0.6675       0.2933
   1416.63108       0.6827       0.2855    1416.63108       0.6827       0.2855
   1416.61582       0.6904       0.2707    1416.61582       0.6904       0.2706
   1416.60056       0.6284       0.2973    1416.60056       0.6284       0.2973
   1416.58530       0.6282       0.2609    1416.58530       0.6282       0.2608
   1416.57004       0.7197       0.2763    1416.57004       0.7197       0.2763
   1416.55479       0.6593       0.2992    1416.55479       0.6593       0.2991
   1416.53953       0.6492       0.2936    1416.53953       0.6492       0.2935
   1416.52427       0.6913       0.3005    1416.52427       0.6912       0.3005
   1416.50901       0.7420       0.3567    1416.50901       0.7419       0.3567
   1416.49375       0.6791       0.2964    1416.49375       0.6791       0.2963
   1416.47849       0.6836       0.3483    1416.47849       0.6836       0.3482
   1416.46323       0.6820       0.3138    1416.46323       0.6820       0.3138
   1416.44797       0.6922       0.2881    1416.44797       0.6922       0.2881
   1416.43271       0.7230       0.3728    1416.43271       0.7230       0.3728
   1416.41746       0.6696       0.3450    1416.41746       0.6696       0.3449
   1416.40220       0.7028       0.3492    1416.40220       0.7028       0.3491
   1416.38694       0.6603       0.3299    1416.38694       0.6602       0.3299
   1416.37168       0.7008       0.3527    1416.37168       0.7007       0.3526
   1416.35642       0.6772       0.3291    1416.35642       0.6772       0.3290
   1416.34116       0.6555       0.3411    1416.34116       0.6555       0.3410
   1416.32590       0.6096       0.3576    1416.32590       0.6096       0.3575
   1416.31064       0.7231       0.3392    1416.31064       0.7231       0.3391
   1416.29539       0.6736       0.2929    1416.29539       0.6736       0.2928
   1416.28013       0.6932       0.3125    1416.28013       0.6932       0.3125
   1416.26487       0.7202       0.3258    1416.26487       0.7202       0.3257
   1416.24961       0.6345       0.3318    1416.24961       0.6344       0.3317
   1416.23435       0.6878       0.3418    1416.23435       0.6878       0.3418
   1416.21909       0.6771       0.3372    1416.21909       0.6771       0.3372
   1416.20383       0.6981       0.3284    1416.20383       0.6981       0.3283
   1416.18857       0.6554       0.3210    1416.18857       0.6554       0.3209
   1416.17332       0.6963       0.3797    1416.17332       0.6963       0.3796
   1416.15806       0.6850       0.3417    1416.15806       0.6850       0.3416
   1416.14280       0.6676       0.3769    1416.14280       0.6675       0.3768
   1416.12754       0.6458       0.3369    1416.12754       0.6457       0.3368
   1416.11228       0.7169       0.3589    1416.11228       0.7169       0.3588
   1416.09702       0.6966       0.3947    1416.09702       0.6966       0.3947
   1416.08176       0.7433       0.3925    1416.08176       0.7433       0.3925
   1416.06650       0.7207       0.3869    1416.06650       0.7207       0.3868
   1416.05125       0.6882       0.4018    1416.05125       0.6882       0.4017
   1416.03599       0.6400       0.4021    1416.03599       0.6400       0.4020
   1416.02073       0.6726       0.3489    1416.02073       0.6726       0.3488
   1416.00547       0.7198       0.3502    1416.00547       0.7198       0.3502
   1415.99021       0.6919       0.3403    1415.99021       0.6918       0.3403
   1415.97495       0.7170       0.3278    1415.97495       0.7170       0.3277
   1415.95969       0.6831       0.3533    1415.95969       0.6831       0.3533
   1415.94443       0.7290       0.3491    1415.94443       0.7290       0.3490
   1415.92917       0.7201       0.3909    1415.92917       0.7201       0.3909
   1415.91392       0.6714       0.4242    1415.91392       0.6714       0.4241
   1415.89866       0.6931       0.3960    1415.89866       0.6930       0.3960
   1415.88340       0.7026       0.3986    1415.88340       0.7026       0.3985
   1415.86814       0.6603       0.4075    1415.86814       0.6603       0.4074
   1415.85288       0.6689       0.4134    1415.85288       0.6689       0.4134
   1415.83762       0.6522       0.4182    1415.83762       0.6522       0.4181
   1415.82236       0.7034       0.3686    1415.82236       0.7034       0.3685
   1415.80710       0.7201       0.4201    1415.80710       0.7201       0.4200
   1415.79185       0.7122       0.4070    1415.79185       0.7121       0.4070
   1415.77659       0.6789       0.4244    1415.77659       0.6789       0.4243
   1415.76133       0.7010       0.3593    1415.76133       0.7009       0.3592
   1415.74607       0.6383       0.3877    1415.74607       0.6383       0.3877
   1415.73081       0.6912       0.4374    1415.73081       0.6912       0.4373
   1415.71555       0.6531       0.3766    1415.71555       0.6531       0.3765
   1415.70029       0.6840       0.4226    1415.70029       0.6839       0.4225
   1415.68503       0.7109       0.4260    1415.68503       0.7108       0.4259
   1415.66978       0.6688       0.4096    1415.66978       0.6688       0.4096
   1415.65452       0.6618       0.4417    1415.65452       0.6618       0.4416
   1415.63926       0.7230       0.4062    1415.63926       0.7230       0.4062
   1415.62400       0.6578       0.4330    1415.62400       0.6578       0.4329
   1415.60874       0.6412       0.4414    1415.60874       0.6411       0.4413
   1415.59348       0.6600       0.3753    1415.59348       0.6600       0.3752
   1415.57822       0.6636       0.4286    1415.57822       0.6635       0.4285
   1415.56296       0.6538       0.4177    1415.56296       0.6537       0.4177
   1415.54771       0.6999       0.4144    1415.54771       0.6999       0.4143
   1415.53245       0.6710       0.4505    1415.53245       0.6710       0.4504
   1415.51719       0.6616       0.4164    1415.51719       0.6616       0.4163
   1415.50193       0.6770       0.3721    1415.50193       0.6769       0.3721
   1415.48667       0.6840       0.4253    1415.48667       0.6839       0.4253
   1415.47141       0.6268       0.4370    1415.47141       0.6267       0.4369
   1415.45615       0.7150       0.3504    1415.45615       0.7150       0.3503
   1415.44089       0.6746       0.4135    1415.44089       0.6746       0.4134
   1415.42563       0.7157       0.4776    1415.42563       0.7157       0.4775
   1415.41038       0.6662       0.4726    1415.41038       0.6662       0.4726
   1415.39512       0.6649       0.4723    1415.39512       0.6649       0.4722
   1415.37986       0.6660       0.4538    1415.37986       0.6660       0.4537
   1415.36460       0.6855       0.4751    1415.36460       0.6855       0.4750
   1415.34934       0.6431       0.4762    1415.34934       0.6430       0.4761
   1415.33408       0.6707       0.4147    1415.33408       0.6707       0.4147
   1415.31882       0.6773       0.4718    1415.31882       0.6773       0.4717
   1415.30356       0.6589       0.5117    1415.30356       0.6589       0.5116
   1415.28831       0.6811       0.5148    1415.28831       0.6811       0.5147
   1415.27305       0.6892       0.4132    1415.27305       0.6891       0.4131
   1415.25779       0.6656       0.4433    1415.25779       0.6656       0.4433
   1415.24253       0.6570       0.5406    1415.24253       0.6569       0.5405
   1415.22727       0.6340       0.4994    1415.22727       0.6340       0.4993
   1415.21201       0.7210       0.4683    1415.21201       0.7210       0.4682
   1415.19675       0.6803       0.4821    1415.19675       0.6803       0.4820
   1415.18149       0.6591       0.4999    1415.18149       0.6591       0.4998
   1415.16624       0.6786       0.5189    1415.16624       0.6786       0.5187
   1415.15098       0.6470       0.4630    1415.15098       0.6470       0.4629
   1415.13572       0.6830       0.5350    1415.13572       0.6829       0.5349
   1415.12046       0.6315       0.4952    1415.12046       0.6315       0.4951
   1415.10520       0.6490       0.5064    1415.10520       0.6490       0.5063
   1415.08994       0.6465       0.4809    1415.08994       0.6465       0.4808
   1415.07468       0.6500       0.4945    1415.07468       0.6500       0.4944
   1415.05942       0.6665       0.4774    1415.05942       0.6664       0.4773
   1415.04417       0.6322       0.4959    1415.04417       0.6322       0.4958
   1415.02891       0.6272       0.5127    1415.02891       0.6272       0.5126
   1415.01365       0.6573       0.5295    1415.01365       0.6573       0.5294
   1414.99839       0.6199       0.5042    1414.99839       0.6199       0.5041
   1414.98313       0.6096       0.5257    1414.98313       0.6095       0.5256
   1414.96787       0.6519       0.5261    1414.96787       0.6519       0.5260
   1414.95261       0.6097       0.5161    1414.95261       0.6097       0.5160
   1414.93735       0.6150       0.5616    1414.93735       0.6150       0.5615
   1414.92209       0.6236       0.5077    1414.92209       0.6236       0.5076
   1414.90684       0.6500       0.5410    1414.90684       0.6500       0.5409
   1414.89158       0.6483       0.5264    1414.89158       0.6483       0.5263
   1414.87632       0.6285       0.5452    1414.87632       0.6284       0.5451
   1414.86106       0.6365       0.5494    1414.86106       0.6365       0.5493
   1414.84580       0.6573       0.5507    1414.84580       0.6573       0.5506
   1414.83054       0.6334       0.5713    1414.83054       0.6334       0.5711
   1414.81528       0.6828       0.5310    1414.81528       0.6828       0.5309
   1414.80002       0.6440       0.6125    1414.80002       0.6440       0.6124
   1414.78477       0.6080       0.5831    1414.78477       0.6080       0.5830
   1414.76951       0.5759       0.5228    1414.76951       0.5759       0.5227
   1414.75425       0.6353       0.5606    1414.75425       0.6353       0.5605
   1414.73899       0.6270       0.5319    1414.73899       0.6270       0.5318
   1414.72373       0.6075       0.5766    1414.72373       0.6074       0.5765
   1414.70847       0.6480       0.5513    1414.70847       0.6480       0.5512
   1414.69321       0.6329       0.4909    1414.69321       0.6329       0.4908
   1414.67795       0.5916       0.5715    1414.67795       0.5916       0.5714
   1414.66270       0.5910       0.4974    1414.66270       0.5910       0.4973
   1414.64744       0.5693       0.5607    1414.64744       0.5693       0.5605
   1414.63218       0.6034       0.5839    1414.63218       0.6034       0.5838
   1414.61692       0.6056       0.4949    1414.61692       0.6056       0.4948
   1414.60166       0.6176       0.5688    1414.60166       0.6176       0.5687
   1414.58640       0.6343       0.5119    1414.58640       0.6343       0.5118
   1414.57114       0.6052       0.5163    1414.57114       0.6052       0.5162
   1414.55588       0.5907       0.5664    1414.55588       0.5907       0.5663
   1414.54062       0.6107       0.5354    1414.54062       0.6107       0.5353
   1414.52537       0.6238       0.5637    1414.52537       0.6238       0.5636
   1414.51011       0.6128       0.5766    1414.51011       0.6128       0.5765
   1414.49485       0.5096       0.5677    1414.49485       0.5096       0.5676
   1414.47959       0.5928       0.5340    1414.47959       0.5928       0.5339
   1414.46433       0.5618       0.5617    1414.46433       0.5618       0.5616
   1414.44907       0.6014       0.5791    1414.44907       0.6014       0.5790
   1414.43381       0.6181       0.5511    1414.43381       0.6180       0.5510
   1414.41855       0.5643       0.5253    1414.41855       0.5643       0.5252
   1414.40330       0.5858       0.5912    1414.40330       0.5857       0.5911
   1414.38804       0.5870       0.5469    1414.38804       0.5870       0.5468
   1414.37278       0.5852       0.5329    1414.37278       0.5852       0.5328
   1414.35752       0.5429       0.5084    1414.35752       0.5429       0.5083
   1414.34226       0.5534       0.5439    1414.34226       0.5534       0.5438
   1414.32700       0.5730       0.5189    1414.32700       0.5729       0.5188
   1414.31174       0.5282       0.6124    1414.31174       0.5282       0.6123
   1414.29648       0.6383       0.5755    1414.29648       0.6383       0.5754
   1414.28123       0.5941       0.5449    1414.28123       0.5941       0.5448
   1414.26597       0.5898       0.5540    1414.26597       0.5898       0.5539
   1414.25071       0.5970       0.5927    1414.25071       0.5970       0.5926
   1414.23545       0.5784       0.5447    1414.23545       0.5783       0.5446
   1414.22019       0.5641       0.5740    1414.22019       0.5641       0.5739
   1414.20493       0.5513       0.5475    1414.20493       0.5513       0.5474
   1414.18967       0.5453       0.5845    1414.18967       0.5452       0.5843
   1414.17441       0.5078       0.6059    1414.17441       0.5078       0.6058
   1414.15916       0.5673       0.5274    1414.15916       0.5673       0.5273
   1414.14390       0.5527       0.5414    1414.14390       0.5527       0.5413
   1414.12864       0.5406       0.6316    1414.12864       0.5406       0.6315
   1414.11338       0.5862       0.5896    1414.11338       0.5862       0.5894
   1414.09812       0.5481       0.6440    1414.09812       0.5481       0.6439
   1414.08286       0.5693       0.5620    1414.08286       0.5693       0.5619
   1414.06760       0.5597       0.5454    1414.06760       0.5597       0.5453
   1414.05234       0.5289       0.5343    1414.05234       0.5289       0.5341
   1414.03708       0.5816       0.6234    1414.03708       0.5816       0.6233
   1414.02183       0.5459       0.5979    1414.02183       0.5459       0.5978
   1414.00657       0.5600       0.5860    1414.00657       0.5600       0.5859
   1413.99131       0.5746       0.5694    1413.99131       0.5746       0.5692
   1413.97605       0.5447       0.6341    1413.97605       0.5447       0.6340
   1413.96079       0.5361       0.6596    1413.96079       0.5361       0.6594
   1413.94553       0.5272       0.5655    1413.94553       0.5272       0.5654
   1413.93027       0.5016       0.5852    1413.93027       0.5016       0.5851
   1413.91501       0.5517       0.6519    1413.91501       0.5517       0.6518
   1413.89976       0.4789       0.5808    1413.89976       0.4789       0.5807
   1413.88450       0.5305       0.5996    1413.88450       0.5304       0.5995
   1413.86924       0.5466       0.5887    1413.86924       0.5466       0.5886
   1413.85398       0.5839       0.6162    1413.85398       0.5839       0.6161
   1413.83872       0.4928       0.5703    1413.83872       0.4928       0.5702
   1413.82346       0.5259       0.5971    1413.82346       0.5259       0.5970
   1413.80820       0.5230       0.5807    1413.80820       0.5229       0.5805
   1413.79294       0.5316       0.6178    1413.79294       0.5316       0.6177
   1413.77769       0.5438       0.5639    1413.77769       0.5438       0.5638
   1413.76243       0.4987       0.5848    1413.76243       0.4987       0.5846
   1413.74717       0.5443       0.5519    1413.74717       0.5443       0.5518
   1413.73191       0.5123       0.5865    1413.73191       0.5123       0.5864
   1413.71665       0.5135       0.5802    1413.71665       0.5135       0.5800
   1413.70139       0.5279       0.6237    1413.70139       0.5279       0.6236
   1413.68613       0.5522       0.5848    1413.68613       0.5522       0.5847
   1413.67087       0.5376       0.5559    1413.67087       0.5376       0.5558
   1413.65562       0.5197       0.5761    1413.65562       0.5197       0.5760
   1413.64036       0.5481       0.5266    1413.64036       0.5480       0.5265
   1413.62510       0.5086       0.5943    1413.62510       0.5086       0.5942
   1413.60984       0.5780       0.6031    1413.60984       0.5780       0.6030
   1413.59458       0.5600       0.5928    1413.59458       0.5600       0.5927
   1413.57932       0.5606       0.6069    1413.57932       0.5606       0.6067
   1413.56406       0.4950       0.4928    1413.56406       0.4950       0.4927
   1413.54880       0.5063       0.5306    1413.54880       0.5062       0.5305
   1413.53354       0.5120       0.6036    1413.53354       0.5120       0.6035
   1413.51829       0.4884       0.5445    1413.51829       0.4884       0.5444
   1413.50303       0.4870       0.5644    1413.50303       0.4870       0.5643
   1413.48777       0.4652       0.6311    1413.48777       0.4651       0.6310
   1413.47251       0.5124       0.5622    1413.47251       0.5124       0.5620
   1413.45725       0.5189       0.5568    1413.45725       0.5189       0.5567
   1413.44199       0.5269       0.6229    1413.44199       0.5269       0.6228
   1413.42673       0.5145       0.4895    1413.42673       0.5145       0.4894
   1413.41147       0.4827       0.5800    1413.41147       0.4827       0.5799
   1413.39622       0.4488       0.5358    1413.39622       0.4488       0.5357
