#     FILENAME=Skynet_59202_M31_51605_573.A.onoff.cal.txt
#     BASENAME=Skynet_59202_M31_51605_573
#      CONTROL=SKYNET
#     PROJCODE=Skynet_59202_M31_51605
#     DATAROOT=/raid/scratch/cyborg/SkynetData
#      DATADIR=/raid/scratch/cyborg
#     DATADIR2=/raid/scratch/cyborg/SkynetData/Skynet_59202_M31_51605/Cyborg
#     SCANNAME=2019_06_26_10
#     SRC_NAME=M31
#     OBSERVER=haverford2_26746
#     DATE_OBS=2020-12-19T20:02:19.250
#        OBSID=51605
#      SCANNUM=573
#          MJD=59202.834945
#          UTC=72139
#     SCANTYPE=onoff
#     DATAMODE=HIRES
#     RECEIVER=Rx1_2
#      OBSFREQ=1395.0000
# Actual_FREQ1=1421.8800,
# Actual_FREQ2=1390.6300
#    LO1Tuning=6856.2600
#     RFFILTER=1355_1435
#        OBSBW=-15.6250
#     EFFBANDW=15.6250
#        NCHAN=1024
#    STARTCHAN=51
#     STOPCHAN=972
#         TINT=0.9999
#         TBIN=0.00013107
#       ACCLEN=2048 
#     DURATION=452.00
#     EXPOSURE=401.98
#        FOCUS=37.071
#       RA,DEC=00:43:00.33, 41:16:08.83
#      RA(deg)=12.68587
#     DEC(deg)=41.26923
#   WIDTH(deg)=3.0230x0.0090
#    AZIM(deg)=65.0673
#    ELEV(deg)=42.9671
#     COORDREF=RA_DEC_
#         HREF=10.6846
#         VREF=41.2692
#      RADESYS=FK5
#       OFFSYS=RADEC
#      EQUINOX=2000.00
#     IFATTENS=22.00, 15.00
#   BALANCELEV=1.200 
#   POWER_XLYR=[1.82, 3.18] 
#       VELDEF=RADI-OBS 
#     VELOCITY=0.000 
#         NPOL=2 
#      POLMODE=Linear 
#      POLTYPE=XXYY 
#      WARNING=None 
#     NOISECAL=HI 
#       PRECAL=5 
#      POSTCAL=5 
#     CRYOTEMP=23 
#      BOXTEMP=32 
#         TSYS=XX1:38.36, YY1:49.89
#         TSYS=XX2:42.27, YY2:43.72
#         TCAL=XX1:9.17, YY1:10.07
#         TCAL=XX2:9.14, YY2:9.87
# Calibrated spectra: Tsys*(ON-OFF)/OFF 
#                
#                
#Freq1(MHz)         XX1          YY1   Freq2(MHz)       XX2         YY2 
   1428.91430       1.0916       0.8580    1397.66430       0.9548       1.3420
   1428.89904       1.0710       0.8879    1397.64904       0.9971       1.2870
   1428.88378       1.0550       0.8952    1397.63378       1.0366       1.3451
   1428.86853       1.1243       0.8752    1397.61853       1.0004       1.3748
   1428.85327       1.0954       0.8645    1397.60327       0.9622       1.3501
   1428.83801       1.1006       0.7881    1397.58801       0.9179       1.3007
   1428.82275       1.1083       0.8748    1397.57275       0.9711       1.3231
   1428.80749       1.0739       0.8651    1397.55749       0.8905       1.3393
   1428.79223       1.0382       0.8268    1397.54223       0.8906       1.2452
   1428.77697       1.0499       0.8429    1397.52697       0.8812       1.3333
   1428.76171       1.0457       0.8362    1397.51171       0.8742       1.2644
   1428.74646       1.1010       0.8180    1397.49646       0.8952       1.3046
   1428.73120       1.0911       0.8684    1397.48120       0.8446       1.2578
   1428.71594       1.0837       0.8668    1397.46594       0.8062       1.3140
   1428.70068       1.0815       0.9426    1397.45068       0.8662       1.2451
   1428.68542       1.1082       0.7713    1397.43542       0.6882       1.2467
   1428.67016       1.0987       0.7291    1397.42016       0.7394       1.2258
   1428.65490       1.0466       0.8657    1397.40490       0.5960       1.2320
   1428.63964       1.0655       0.8708    1397.38964       0.7970       1.2356
   1428.62438       1.0718       0.8594    1397.37438       0.6871       1.2027
   1428.60913       1.0334       0.8005    1397.35913       0.6818       1.1748
   1428.59387       1.0341       0.7770    1397.34387       0.5801       1.1264
   1428.57861       1.0107       0.7801    1397.32861       0.3992       1.0786
   1428.56335       1.0602       0.8569    1397.31335       0.5774       1.1012
   1428.54809       1.0357       0.7606    1397.29809       0.5062       1.1168
   1428.53283       1.0353       0.8675    1397.28283       0.5552       1.0617
   1428.51757       0.9971       0.8541    1397.26757       0.4788       1.1174
   1428.50231       1.0652       0.8012    1397.25231       0.4169       1.0217
   1428.48706       1.0389       0.7609    1397.23706       0.3267       1.1205
   1428.47180       0.9957       0.8195    1397.22180       0.1861       1.0323
   1428.45654       0.9927       0.8120    1397.20654       0.3838       1.0903
   1428.44128       0.9840       0.8544    1397.19128       0.5871       1.0793
   1428.42602       1.0353       0.8455    1397.17602       0.5205       1.0774
   1428.41076       1.0014       0.8303    1397.16076       0.3577       0.9541
   1428.39550       1.0125       0.7679    1397.14550       0.1330       0.9860
   1428.38024       0.9803       0.8459    1397.13024       0.2870       0.9604
   1428.36499       0.9905       0.8318    1397.11499       0.2600       1.0588
   1428.34973       1.0183       0.7858    1397.09973       0.2981       0.9680
   1428.33447       1.0625       0.8263    1397.08447       0.4276       1.0100
   1428.31921       0.9997       0.8037    1397.06921       0.2517       1.0136
   1428.30395       1.0428       0.8279    1397.05395       0.4176       0.9433
   1428.28869       1.0079       0.7648    1397.03869       0.1588       1.0016
   1428.27343       0.9449       0.7697    1397.02343       0.2228       0.9021
   1428.25817       0.9023       0.7933    1397.00817       0.2331       0.9983
   1428.24292       1.0027       0.7523    1396.99292       0.4044       1.0601
   1428.22766       1.0091       0.7520    1396.97766       0.4647       0.9620
   1428.21240       0.9539       0.8177    1396.96240       0.2299       0.8863
   1428.19714       0.9260       0.8004    1396.94714       0.2753       0.9187
   1428.18188       0.9821       0.7694    1396.93188       0.3839       1.0975
   1428.16662       0.9971       0.8353    1396.91662       0.2209       0.7487
   1428.15136       0.9568       0.8296    1396.90136       0.3342       0.8437
   1428.13610       0.9260       0.7858    1396.88610       0.4366       0.9192
   1428.12084       0.9567       0.7553    1396.87084       0.3419       0.8728
   1428.10559       0.9554       0.7456    1396.85559       0.3004       0.9115
   1428.09033       0.9699       0.7299    1396.84033       0.4277       0.8548
   1428.07507       0.9387       0.7746    1396.82507       0.3263       0.8666
   1428.05981       0.9323       0.7023    1396.80981       0.4525       0.8834
   1428.04455       0.9282       0.8338    1396.79455       0.5298       0.9642
   1428.02929       0.9855       0.7043    1396.77929       0.4416       0.8831
   1428.01403       0.9001       0.7111    1396.76403       0.3646       0.8779
   1427.99877       0.9761       0.7250    1396.74877       0.5935       0.8927
   1427.98352       0.8993       0.8087    1396.73352       0.4845       0.9500
   1427.96826       0.9107       0.7410    1396.71826       0.5291       0.9374
   1427.95300       0.9081       0.7488    1396.70300       0.4933       0.8814
   1427.93774       0.8407       0.6887    1396.68774       0.6069       0.8440
   1427.92248       0.8909       0.7740    1396.67248       0.6997       0.9618
   1427.90722       0.8982       0.7389    1396.65722       0.5754       0.9199
   1427.89196       0.8649       0.7360    1396.64196       0.5538       0.9080
   1427.87670       0.8817       0.7436    1396.62670       0.6382       0.9556
   1427.86145       0.8736       0.7054    1396.61145       0.7189       0.9516
   1427.84619       0.8866       0.6778    1396.59619       0.6776       0.9185
   1427.83093       0.9144       0.7520    1396.58093       0.6357       0.9165
   1427.81567       0.8803       0.7377    1396.56567       0.6824       0.9165
   1427.80041       0.9127       0.7515    1396.55041       0.7879       0.9640
   1427.78515       0.9254       0.6900    1396.53515       0.8525       0.8841
   1427.76989       0.8967       0.6946    1396.51989       0.7313       0.9880
   1427.75463       0.8506       0.6961    1396.50463       0.7757       0.8710
   1427.73937       0.8912       0.7517    1396.48937       0.7669       0.9287
   1427.72412       0.8847       0.7087    1396.47412       0.8203       0.9371
   1427.70886       0.8774       0.7259    1396.45886       0.9162       0.9708
   1427.69360       0.8554       0.7050    1396.44360       0.8795       0.9793
   1427.67834       0.8407       0.6603    1396.42834       0.8268       0.9643
   1427.66308       0.7504       0.7016    1396.41308       0.8584       0.9343
   1427.64782       0.8249       0.7322    1396.39782       0.8126       0.9811
   1427.63256       0.8684       0.6804    1396.38256       0.8631       0.9216
   1427.61730       0.8848       0.6765    1396.36730       0.9040       0.9451
   1427.60205       0.8561       0.8156    1396.35205       0.8546       0.9433
   1427.58679       0.7914       0.7039    1396.33679       0.9401       1.0004
   1427.57153       0.8937       0.6800    1396.32153       0.9474       0.8807
   1427.55627       0.8344       0.7280    1396.30627       0.9414       0.9683
   1427.54101       0.8126       0.6313    1396.29101       0.9850       1.0145
   1427.52575       0.7826       0.6613    1396.27575       0.9889       0.9672
   1427.51049       0.8226       0.6502    1396.26049       1.0361       0.9397
   1427.49523       0.8544       0.7039    1396.24523       0.9137       0.9358
   1427.47998       0.8420       0.7462    1396.22998       0.9992       0.9440
   1427.46472       0.8307       0.7691    1396.21472       1.0051       0.9830
   1427.44946       0.8399       0.6399    1396.19946       0.9472       1.0322
   1427.43420       0.7713       0.6741    1396.18420       1.0035       1.0177
   1427.41894       0.7427       0.6352    1396.16894       0.9984       1.0225
   1427.40368       0.8073       0.6869    1396.15368       0.9944       1.0181
   1427.38842       0.7680       0.6793    1396.13842       0.9687       0.9464
   1427.37316       0.7945       0.6614    1396.12316       0.9993       0.9720
   1427.35791       0.7871       0.6863    1396.10791       1.0416       1.0348
   1427.34265       0.7949       0.6849    1396.09265       0.9847       1.0346
   1427.32739       0.7899       0.6311    1396.07739       1.0047       1.0092
   1427.31213       0.8583       0.6619    1396.06213       1.0194       1.0227
   1427.29687       0.8225       0.6696    1396.04687       1.0186       0.9989
   1427.28161       0.7775       0.6516    1396.03161       1.0143       1.0159
   1427.26635       0.7154       0.6634    1396.01635       0.9595       0.9650
   1427.25109       0.6945       0.6932    1396.00109       1.0245       1.0220
   1427.23583       0.7170       0.7329    1395.98583       1.0600       1.0729
   1427.22058       0.7680       0.6744    1395.97058       0.9761       1.0274
   1427.20532       0.7562       0.6740    1395.95532       0.9866       0.9892
   1427.19006       0.7748       0.6617    1395.94006       1.0188       0.9727
   1427.17480       0.7191       0.6979    1395.92480       1.0464       1.0289
   1427.15954       0.7155       0.6131    1395.90954       1.0301       1.0581
   1427.14428       0.6951       0.6709    1395.89428       1.0731       1.0027
   1427.12902       0.6988       0.7019    1395.87902       1.0859       1.0398
   1427.11376       0.6739       0.6734    1395.86376       1.0912       1.0435
   1427.09851       0.8109       0.6164    1395.84851       1.0354       0.9788
   1427.08325       0.7062       0.6367    1395.83325       0.9934       1.0801
   1427.06799       0.7152       0.6223    1395.81799       1.0269       1.0660
   1427.05273       0.6975       0.6316    1395.80273       0.9677       0.9913
   1427.03747       0.6749       0.6637    1395.78747       1.0149       1.0028
   1427.02221       0.6917       0.6611    1395.77221       0.9925       1.0755
   1427.00695       0.6678       0.7102    1395.75695       0.9899       1.0613
   1426.99169       0.6932       0.6520    1395.74169       1.0058       1.0641
   1426.97644       0.6585       0.6468    1395.72644       1.0140       1.0834
   1426.96118       0.6498       0.6679    1395.71118       0.9967       1.0979
   1426.94592       0.6247       0.6246    1395.69592       1.0008       1.1257
   1426.93066       0.6492       0.7185    1395.68066       1.0480       1.1334
   1426.91540       0.6830       0.7553    1395.66540       1.0330       1.0990
   1426.90014       0.6937       0.6759    1395.65014       1.0165       1.1353
   1426.88488       0.7030       0.6543    1395.63488       1.0454       1.1454
   1426.86962       0.6332       0.6061    1395.61962       0.9969       1.0660
   1426.85437       0.6415       0.7511    1395.60437       1.0239       1.0935
   1426.83911       0.6664       0.7126    1395.58911       1.0304       1.0883
   1426.82385       0.6704       0.6995    1395.57385       1.0342       1.1162
   1426.80859       0.6425       0.6324    1395.55859       1.0136       1.1681
   1426.79333       0.6040       0.6528    1395.54333       0.9968       1.0507
   1426.77807       0.5658       0.6665    1395.52807       1.0035       1.0527
   1426.76281       0.6444       0.6498    1395.51281       1.0329       1.0831
   1426.74755       0.5970       0.6649    1395.49755       1.0658       1.1023
   1426.73229       0.6700       0.5928    1395.48229       1.0504       1.1193
   1426.71704       0.5879       0.6683    1395.46704       1.0564       1.1542
   1426.70178       0.6173       0.6176    1395.45178       1.0124       1.0786
   1426.68652       0.6157       0.6758    1395.43652       1.0238       1.1337
   1426.67126       0.6515       0.6990    1395.42126       1.0456       1.1208
   1426.65600       0.5958       0.7199    1395.40600       0.9839       1.1784
   1426.64074       0.6717       0.6490    1395.39074       0.9924       1.1721
   1426.62548       0.5179       0.7545    1395.37548       1.0366       1.1663
   1426.61022       0.5732       0.7000    1395.36022       0.9928       1.1865
   1426.59497       0.5654       0.6606    1395.34497       0.9643       1.1525
   1426.57971       0.5298       0.6487    1395.32971       1.0083       1.1514
   1426.56445       0.6157       0.6966    1395.31445       1.0229       1.1106
   1426.54919       0.6270       0.7049    1395.29919       1.0018       1.1295
   1426.53393       0.5355       0.6982    1395.28393       1.0096       1.1597
   1426.51867       0.5812       0.6994    1395.26867       1.0091       1.1010
   1426.50341       0.5585       0.6520    1395.25341       1.0322       1.2277
   1426.48815       0.5711       0.6727    1395.23815       0.9802       1.1135
   1426.47290       0.6095       0.7148    1395.22290       0.9962       1.1914
   1426.45764       0.5466       0.7073    1395.20764       1.0194       1.1306
   1426.44238       0.5744       0.7015    1395.19238       0.9445       1.0953
   1426.42712       0.6066       0.7517    1395.17712       1.0425       1.1302
   1426.41186       0.5400       0.7429    1395.16186       0.9848       1.1723
   1426.39660       0.5569       0.6831    1395.14660       1.0302       1.1948
   1426.38134       0.5985       0.7810    1395.13134       1.0214       1.1767
   1426.36608       0.5572       0.7326    1395.11608       0.9714       1.2461
   1426.35083       0.5287       0.7754    1395.10083       0.9481       1.2339
   1426.33557       0.5695       0.6911    1395.08557       1.0421       1.2435
   1426.32031       0.5810       0.7570    1395.07031       1.0186       1.1774
   1426.30505       0.4918       0.7509    1395.05505       0.9775       1.2069
   1426.28979       0.5198       0.7489    1395.03979       1.0494       1.1914
   1426.27453       0.5212       0.8279    1395.02453       1.0002       1.1621
   1426.25927       0.4990       0.7800    1395.00927       0.9934       1.1795
   1426.24401       0.4841       0.7481    1394.99401       0.9554       1.2190
   1426.22875       0.4779       0.7623    1394.97875       0.9781       1.2234
   1426.21350       0.5204       0.7705    1394.96350       1.0019       1.1471
   1426.19824       0.5449       0.8303    1394.94824       0.9840       1.1968
   1426.18298       0.5373       0.7164    1394.93298       0.9337       1.1767
   1426.16772       0.4888       0.7845    1394.91772       0.9278       1.1826
   1426.15246       0.5214       0.7431    1394.90246       0.9741       1.2565
   1426.13720       0.4855       0.7387    1394.88720       0.9886       1.2314
   1426.12194       0.5346       0.8465    1394.87194       1.0020       1.2704
   1426.10668       0.4538       0.8362    1394.85668       0.9405       1.2437
   1426.09143       0.4756       0.8009    1394.84143       0.9876       1.2362
   1426.07617       0.4708       0.8149    1394.82617       0.9362       1.2315
   1426.06091       0.4562       0.7911    1394.81091       0.8910       1.2465
   1426.04565       0.4783       0.8416    1394.79565       0.9959       1.1970
   1426.03039       0.4008       0.8333    1394.78039       0.9329       1.2352
   1426.01513       0.4976       0.8806    1394.76513       0.9671       1.3455
   1425.99987       0.4980       0.8660    1394.74987       0.9778       1.2531
   1425.98461       0.4953       0.9049    1394.73461       0.9602       1.2352
   1425.96936       0.4235       0.8032    1394.71936       0.9415       1.2632
   1425.95410       0.4620       0.8118    1394.70410       0.9931       1.2632
   1425.93884       0.4660       0.7910    1394.68884       0.9955       1.2828
   1425.92358       0.4239       0.8526    1394.67358       0.9774       1.2430
   1425.90832       0.4558       0.8290    1394.65832       0.9447       1.3226
   1425.89306       0.4393       0.8820    1394.64306       0.9379       1.3373
   1425.87780       0.4754       0.8479    1394.62780       0.9996       1.2318
   1425.86254       0.4836       0.8855    1394.61254       1.0079       1.2287
   1425.84729       0.4298       0.8612    1394.59729       0.9677       1.2916
   1425.83203       0.4277       0.8614    1394.58203       0.9746       1.2767
   1425.81677       0.4113       0.8778    1394.56677       0.9686       1.3015
   1425.80151       0.3813       0.8524    1394.55151       0.9897       1.2831
   1425.78625       0.4214       0.8635    1394.53625       0.9733       1.2637
   1425.77099       0.3835       0.8889    1394.52099       0.9124       1.3323
   1425.75573       0.4042       0.8780    1394.50573       0.9618       1.3231
   1425.74047       0.4965       0.9406    1394.49047       0.9689       1.3205
   1425.72521       0.4130       0.8691    1394.47521       0.9773       1.3484
   1425.70996       0.4544       0.9071    1394.45996       0.9505       1.3634
   1425.69470       0.5146       0.8970    1394.44470       0.9457       1.3289
   1425.67944       0.4389       0.9059    1394.42944       0.9111       1.2791
   1425.66418       0.3608       0.8713    1394.41418       0.9154       1.2921
   1425.64892       0.3827       0.9484    1394.39892       0.8885       1.3113
   1425.63366       0.4457       0.9336    1394.38366       0.9357       1.3361
   1425.61840       0.4355       0.8971    1394.36840       0.9066       1.3515
   1425.60314       0.3979       0.9046    1394.35314       0.9817       1.3418
   1425.58789       0.4031       0.9608    1394.33789       0.9463       1.3385
   1425.57263       0.3836       0.9810    1394.32263       0.9329       1.2725
   1425.55737       0.4102       0.8933    1394.30737       0.9801       1.3267
   1425.54211       0.4191       1.0366    1394.29211       0.9647       1.3254
   1425.52685       0.3648       0.9347    1394.27685       0.8993       1.2950
   1425.51159       0.4079       1.0076    1394.26159       0.9023       1.3358
   1425.49633       0.3897       0.9590    1394.24633       0.9079       1.3362
   1425.48107       0.4227       0.9460    1394.23107       0.9986       1.4053
   1425.46582       0.4236       0.9092    1394.21582       0.9398       1.3371
   1425.45056       0.4121       0.9856    1394.20056       0.8752       1.3594
   1425.43530       0.3863       0.9718    1394.18530       0.8515       1.3323
   1425.42004       0.3759       0.9606    1394.17004       0.9344       1.3078
   1425.40478       0.3687       0.9107    1394.15478       0.9354       1.2893
   1425.38952       0.4069       1.0384    1394.13952       0.9059       1.3550
   1425.37426       0.4007       0.9953    1394.12426       0.9121       1.3747
   1425.35900       0.4016       0.9619    1394.10900       0.8706       1.3764
   1425.34375       0.3965       1.0329    1394.09375       0.8823       1.3259
   1425.32849       0.3610       0.9875    1394.07849       0.8868       1.3092
   1425.31323       0.3968       0.9933    1394.06323       0.9399       1.3237
   1425.29797       0.3882       0.9878    1394.04797       0.9146       1.3810
   1425.28271       0.3942       1.0079    1394.03271       0.9076       1.3457
   1425.26745       0.4023       0.9950    1394.01745       0.9017       1.3722
   1425.25219       0.3451       0.9695    1394.00219       0.8502       1.3831
   1425.23693       0.3240       1.0036    1393.98693       0.9618       1.3806
   1425.22167       0.3238       1.0169    1393.97167       0.8998       1.4104
   1425.20642       0.3609       1.0010    1393.95642       0.8664       1.3763
   1425.19116       0.3520       1.0222    1393.94116       0.9142       1.3454
   1425.17590       0.3915       0.9577    1393.92590       0.8888       1.3528
   1425.16064       0.3480       1.0154    1393.91064       0.8303       1.3376
   1425.14538       0.4050       0.9836    1393.89538       0.9266       1.3654
   1425.13012       0.3805       1.0225    1393.88012       0.9115       1.3695
   1425.11486       0.3760       1.0275    1393.86486       0.8727       1.3624
   1425.09960       0.3673       0.9413    1393.84960       0.9031       1.3437
   1425.08435       0.3761       1.0544    1393.83435       0.8978       1.3325
   1425.06909       0.3528       1.0409    1393.81909       0.8757       1.3289
   1425.05383       0.3542       1.0574    1393.80383       0.8741       1.3222
   1425.03857       0.3065       0.9888    1393.78857       0.9089       1.3819
   1425.02331       0.4062       1.0341    1393.77331       0.8798       1.4134
   1425.00805       0.3685       1.0406    1393.75805       0.9193       1.3095
   1424.99279       0.3207       0.9742    1393.74279       0.9435       1.3958
   1424.97753       0.3483       0.9821    1393.72753       0.8875       1.3725
   1424.96228       0.3378       1.0750    1393.71228       0.8578       1.3187
   1424.94702       0.3372       1.0034    1393.69702       0.8561       1.3639
   1424.93176       0.3487       1.0086    1393.68176       0.8625       1.3773
   1424.91650       0.3655       1.0546    1393.66650       0.8711       1.3564
   1424.90124       0.3340       0.9589    1393.65124       0.8669       1.3751
   1424.88598       0.3474       1.0064    1393.63598       0.8573       1.3516
   1424.87072       0.3828       1.0792    1393.62072       0.9222       1.3291
   1424.85546       0.3103       1.0150    1393.60546       0.8894       1.3300
   1424.84021       0.2729       0.9964    1393.59021       0.8710       1.3683
   1424.82495       0.3301       1.0301    1393.57495       0.8932       1.3283
   1424.80969       0.3210       1.0880    1393.55969       0.8800       1.3786
   1424.79443       0.3295       1.0479    1393.54443       0.8629       1.3580
   1424.77917       0.3316       1.0469    1393.52917       0.8625       1.3417
   1424.76391       0.2929       1.1231    1393.51391       0.8110       1.3448
   1424.74865       0.3188       1.0447    1393.49865       0.7937       1.3620
   1424.73339       0.3375       1.0719    1393.48339       0.8920       1.3740
   1424.71813       0.3232       1.0311    1393.46813       0.8712       1.3033
   1424.70288       0.3299       1.0212    1393.45288       0.8557       1.3316
   1424.68762       0.3729       1.0880    1393.43762       0.8373       1.3564
   1424.67236       0.3246       1.0451    1393.42236       0.8591       1.3853
   1424.65710       0.3750       1.1054    1393.40710       0.8229       1.3517
   1424.64184       0.3171       1.0565    1393.39184       0.8048       1.3500
   1424.62658       0.2889       1.0497    1393.37658       0.8220       1.3307
   1424.61132       0.2945       1.0464    1393.36132       0.8132       1.3709
   1424.59606       0.3521       1.0985    1393.34606       0.8131       1.3567
   1424.58081       0.2964       1.1180    1393.33081       0.8536       1.3391
   1424.56555       0.3418       1.0806    1393.31555       0.8415       1.3462
   1424.55029       0.3138       1.0253    1393.30029       0.8341       1.3633
   1424.53503       0.3029       1.0749    1393.28503       0.8343       1.3573
   1424.51977       0.3194       1.0657    1393.26977       0.7952       1.3842
   1424.50451       0.3616       1.0583    1393.25451       0.8233       1.3792
   1424.48925       0.2763       1.1174    1393.23925       0.8057       1.3658
   1424.47399       0.3414       1.0627    1393.22399       0.8331       1.3626
   1424.45874       0.3356       1.0396    1393.20874       0.8150       1.3744
   1424.44348       0.2705       1.0507    1393.19348       0.7926       1.3420
   1424.42822       0.3042       1.0870    1393.17822       0.8231       1.3450
   1424.41296       0.3470       1.0340    1393.16296       0.8290       1.4024
   1424.39770       0.3306       1.0846    1393.14770       0.7814       1.3827
   1424.38244       0.2740       1.0023    1393.13244       0.8548       1.4179
   1424.36718       0.2549       1.0623    1393.11718       0.8071       1.3671
   1424.35192       0.2426       1.1053    1393.10192       0.7922       1.3697
   1424.33667       0.3375       1.0780    1393.08667       0.7815       1.3375
   1424.32141       0.2584       1.0490    1393.07141       0.7538       1.3503
   1424.30615       0.2844       1.0966    1393.05615       0.8325       1.3157
   1424.29089       0.3264       1.0300    1393.04089       0.8204       1.3268
   1424.27563       0.3270       1.0304    1393.02563       0.8168       1.2954
   1424.26037       0.2576       1.0224    1393.01037       0.8522       1.3798
   1424.24511       0.2633       1.0705    1392.99511       0.8022       1.3404
   1424.22985       0.2992       1.0258    1392.97985       0.8154       1.3226
   1424.21459       0.2675       1.0544    1392.96459       0.8274       1.3536
   1424.19934       0.2729       1.1058    1392.94934       0.8168       1.2965
   1424.18408       0.2849       0.9768    1392.93408       0.8058       1.3366
   1424.16882       0.2806       1.0330    1392.91882       0.8233       1.3443
   1424.15356       0.2971       1.0623    1392.90356       0.8481       1.2906
   1424.13830       0.2674       1.0716    1392.88830       0.8291       1.3617
   1424.12304       0.2627       1.0641    1392.87304       0.8496       1.3615
   1424.10778       0.2692       0.9952    1392.85778       0.7729       1.3181
   1424.09252       0.2096       1.0426    1392.84252       0.7499       1.3160
   1424.07727       0.2840       1.0242    1392.82727       0.8006       1.3303
   1424.06201       0.2568       1.0578    1392.81201       0.8074       1.3722
   1424.04675       0.2950       1.0640    1392.79675       0.7794       1.3137
   1424.03149       0.2315       1.0330    1392.78149       0.8243       1.3090
   1424.01623       0.2667       1.0219    1392.76623       0.7627       1.2892
   1424.00097       0.2875       1.0597    1392.75097       0.8136       1.3281
   1423.98571       0.2965       1.0197    1392.73571       0.8057       1.2945
   1423.97045       0.2940       1.0310    1392.72045       0.7178       1.3023
   1423.95520       0.2530       1.0158    1392.70520       0.7807       1.3870
   1423.93994       0.2673       1.0077    1392.68994       0.7550       1.3339
   1423.92468       0.2846       1.0269    1392.67468       0.8286       1.3251
   1423.90942       0.2298       1.0620    1392.65942       0.7964       1.2987
   1423.89416       0.2968       1.0678    1392.64416       0.8598       1.3328
   1423.87890       0.2321       1.0852    1392.62890       0.8072       1.3292
   1423.86364       0.2657       1.0075    1392.61364       0.7955       1.3101
   1423.84838       0.3145       1.0043    1392.59838       0.7720       1.3429
   1423.83312       0.2534       1.0390    1392.58312       0.7480       1.3078
   1423.81787       0.3166       1.0951    1392.56787       0.7930       1.3170
   1423.80261       0.2289       0.9853    1392.55261       0.7760       1.3015
   1423.78735       0.2800       0.9923    1392.53735       0.7898       1.2921
   1423.77209       0.3057       1.0245    1392.52209       0.8636       1.3148
   1423.75683       0.3558       1.0461    1392.50683       0.7750       1.3230
   1423.74157       0.3085       1.0605    1392.49157       0.8039       1.3388
   1423.72631       0.3569       1.0042    1392.47631       0.8602       1.3345
   1423.71105       0.2729       1.0099    1392.46105       0.8594       1.3271
   1423.69580       0.2689       1.0183    1392.44580       0.8123       1.2990
   1423.68054       0.3209       0.9433    1392.43054       0.7981       1.2578
   1423.66528       0.2934       1.0272    1392.41528       0.7896       1.3573
   1423.65002       0.3380       1.1329    1392.40002       0.7973       1.2785
   1423.63476       0.3297       1.0285    1392.38476       0.7669       1.2855
   1423.61950       0.2991       1.0408    1392.36950       0.7714       1.2809
   1423.60424       0.2883       1.0324    1392.35424       0.7755       1.2303
   1423.58898       0.3009       1.0838    1392.33898       0.8096       1.2868
   1423.57373       0.3106       1.0382    1392.32373       0.8158       1.3074
   1423.55847       0.3000       1.0115    1392.30847       0.7914       1.3230
   1423.54321       0.3152       0.9601    1392.29321       0.8232       1.2941
   1423.52795       0.3547       1.0002    1392.27795       0.7718       1.2867
   1423.51269       0.2974       1.0102    1392.26269       0.8002       1.2761
   1423.49743       0.2989       1.0354    1392.24743       0.7538       1.3269
   1423.48217       0.2531       1.0373    1392.23217       0.8274       1.2604
   1423.46691       0.2976       0.9980    1392.21691       0.8013       1.2901
   1423.45166       0.2566       1.0227    1392.20166       0.8081       1.2884
   1423.43640       0.3408       0.9816    1392.18640       0.7429       1.2977
   1423.42114       0.2721       1.0343    1392.17114       0.8393       1.2074
   1423.40588       0.3556       1.0283    1392.15588       0.8010       1.2548
   1423.39062       0.3339       1.0158    1392.14062       0.8268       1.2086
   1423.37536       0.2987       1.0395    1392.12536       0.7774       1.2359
   1423.36010       0.3386       0.9703    1392.11010       0.7965       1.2541
   1423.34484       0.2806       1.0010    1392.09484       0.7993       1.2852
   1423.32958       0.3510       1.0390    1392.07958       0.7960       1.2352
   1423.31433       0.3318       0.9861    1392.06433       0.7951       1.2166
   1423.29907       0.3334       0.9597    1392.04907       0.8092       1.2255
   1423.28381       0.2751       0.9890    1392.03381       0.7330       1.1810
   1423.26855       0.3025       1.0001    1392.01855       0.8217       1.2426
   1423.25329       0.3373       1.0463    1392.00329       0.8245       1.2834
   1423.23803       0.3445       0.9882    1391.98803       0.8024       1.2405
   1423.22277       0.3128       1.0221    1391.97277       0.7907       1.2270
   1423.20751       0.3409       1.0179    1391.95751       0.7925       1.2221
   1423.19226       0.3157       0.9621    1391.94226       0.8013       1.2569
   1423.17700       0.3436       0.9834    1391.92700       0.7782       1.1988
   1423.16174       0.3280       0.9803    1391.91174       0.8023       1.2081
   1423.14648       0.3409       1.0154    1391.89648       0.8115       1.2002
   1423.13122       0.3269       0.9594    1391.88122       0.8000       1.2124
   1423.11596       0.3223       1.0081    1391.86596       0.7848       1.1879
   1423.10070       0.3979       0.9770    1391.85070       0.7996       1.2792
   1423.08544       0.3896       0.9535    1391.83544       0.8038       1.2085
   1423.07019       0.3536       0.9586    1391.82019       0.8203       1.1683
   1423.05493       0.3385       0.9270    1391.80493       0.7614       1.1980
   1423.03967       0.3597       1.0132    1391.78967       0.7966       1.1635
   1423.02441       0.3578       1.0139    1391.77441       0.7803       1.1841
   1423.00915       0.4083       1.0150    1391.75915       0.7724       1.1469
   1422.99389       0.3481       1.0038    1391.74389       0.8198       1.2072
   1422.97863       0.4164       0.9939    1391.72863       0.7993       1.2097
   1422.96337       0.4034       1.0673    1391.71337       0.7770       1.2373
   1422.94812       0.4381       0.9918    1391.69812       0.7802       1.2171
   1422.93286       0.4863       1.0616    1391.68286       0.7669       1.1809
   1422.91760       0.4659       1.0197    1391.66760       0.8142       1.1686
   1422.90234       0.5292       1.0754    1391.65234       0.7896       1.2128
   1422.88708       0.5306       1.0575    1391.63708       0.8372       1.1622
   1422.87182       0.4952       1.1788    1391.62182       0.8084       1.2118
   1422.85656       0.5243       1.1417    1391.60656       0.8104       1.2122
   1422.84130       0.5677       1.2026    1391.59130       0.7957       1.1782
   1422.82604       0.5579       1.2388    1391.57604       0.7935       1.2104
   1422.81079       0.5376       1.2061    1391.56079       0.8018       1.2187
   1422.79553       0.6354       1.2117    1391.54553       0.7956       1.2011
   1422.78027       0.6091       1.2056    1391.53027       0.8040       1.1863
   1422.76501       0.7146       1.2727    1391.51501       0.8079       1.2247
   1422.74975       0.6749       1.2601    1391.49975       0.8042       1.1584
   1422.73449       0.6303       1.2438    1391.48449       0.7919       1.1613
   1422.71923       0.6499       1.2288    1391.46923       0.8261       1.2055
   1422.70397       0.5972       1.2956    1391.45397       0.8164       1.1993
   1422.68872       0.6074       1.1517    1391.43872       0.7668       1.0985
   1422.67346       0.6024       1.1712    1391.42346       0.8652       1.1144
   1422.65820       0.5746       1.1438    1391.40820       0.7480       1.1295
   1422.64294       0.5995       1.1610    1391.39294       0.8142       1.1386
   1422.62768       0.6107       1.2257    1391.37768       0.8242       1.1683
   1422.61242       0.6525       1.2163    1391.36242       0.8226       1.0916
   1422.59716       0.6326       1.1966    1391.34716       0.7954       1.1653
   1422.58190       0.6402       1.1330    1391.33190       0.8190       1.1824
   1422.56665       0.6200       1.2151    1391.31665       0.8125       1.1504
   1422.55139       0.6172       1.1723    1391.30139       0.7741       1.1940
   1422.53613       0.7432       1.1993    1391.28613       0.8284       1.1388
   1422.52087       0.7426       1.1104    1391.27087       0.8112       1.2129
   1422.50561       0.7489       1.2024    1391.25561       0.7550       1.1805
   1422.49035       0.7246       1.2462    1391.24035       0.7648       1.1552
   1422.47509       0.7388       1.2841    1391.22509       0.7645       1.1345
   1422.45983       0.7935       1.3265    1391.20983       0.8524       1.1238
   1422.44458       0.8375       1.3242    1391.19458       0.7642       1.1754
   1422.42932       0.8496       1.3607    1391.17932       0.7788       1.1431
   1422.41406       0.8689       1.3648    1391.16406       0.7711       1.1777
   1422.39880       0.8148       1.4004    1391.14880       0.8050       1.1468
   1422.38354       0.8805       1.4591    1391.13354       0.7741       1.1183
   1422.36828       0.8610       1.5542    1391.11828       0.8137       1.1271
   1422.35302       0.9118       1.5178    1391.10302       0.7850       1.1203
   1422.33776       0.9659       1.5237    1391.08776       0.8073       1.1171
   1422.32250       0.9917       1.5460    1391.07250       0.8228       1.1147
   1422.30725       1.0190       1.5874    1391.05725       0.7577       1.1470
   1422.29199       1.0411       1.5957    1391.04199       0.8119       1.1365
   1422.27673       1.0909       1.6530    1391.02673       0.7681       1.1038
   1422.26147       1.1249       1.7842    1391.01147       0.8031       1.1321
   1422.24621       1.1854       1.8235    1390.99621       0.7910       1.1158
   1422.23095       1.2377       1.8253    1390.98095       0.7072       1.1446
   1422.21569       1.2973       1.8822    1390.96569       0.7831       1.2077
   1422.20043       1.3177       2.0339    1390.95043       0.8080       1.1357
   1422.18518       1.3470       2.0688    1390.93518       0.7826       1.1631
   1422.16992       1.3510       2.0784    1390.91992       0.7082       1.1097
   1422.15466       1.4004       2.1203    1390.90466       0.7766       1.1387
   1422.13940       1.4244       2.0982    1390.88940       0.8145       1.1945
   1422.12414       1.5049       2.1914    1390.87414       0.7533       1.1082
   1422.10888       1.6122       2.3153    1390.85888       0.7825       1.1296
   1422.09362       1.6228       2.3542    1390.84362       0.8045       1.1808
   1422.07836       1.6594       2.5315    1390.82836       0.7456       1.1862
   1422.06311       1.7100       2.5821    1390.81311       0.7931       1.1848
   1422.04785       1.7830       2.5852    1390.79785       0.7610       1.1188
   1422.03259       1.8153       2.5488    1390.78259       0.7565       1.1634
   1422.01733       1.8696       2.5782    1390.76733       0.7316       1.1329
   1422.00207       1.8320       2.6976    1390.75207       0.7391       1.1049
   1421.98681       1.9095       2.6758    1390.73681       0.7195       1.1139
   1421.97155       1.9790       2.8146    1390.72155       0.7613       1.1439
   1421.95629       2.0612       2.8904    1390.70629       0.6774       1.1396
   1421.94104       2.1349       3.0478    1390.69104       0.7122       1.1861
   1421.92578       2.1772       3.2292    1390.67578       0.7575       1.1359
   1421.91052       2.2184       3.2183    1390.66052       0.7515       1.1119
   1421.89526       2.2899       3.3253    1390.64526       0.7357       1.1129
   1421.88000       2.3670       3.3918    1390.63000       0.7456       1.1509
   1421.86474       2.4474       3.4581    1390.61474       0.7555       1.1837
   1421.84948       2.5010       3.5403    1390.59948       0.7827       1.1940
   1421.83422       2.5372       3.6095    1390.58422       0.8503       1.1759
   1421.81896       2.5731       3.6634    1390.56896       0.8233       1.1588
   1421.80371       2.6051       3.6541    1390.55371       0.7014       1.1968
   1421.78845       2.5481       3.6310    1390.53845       0.7948       1.1055
   1421.77319       2.5263       3.6895    1390.52319       0.7741       1.1588
   1421.75793       2.5186       3.6573    1390.50793       0.7632       1.1428
   1421.74267       2.5791       3.6444    1390.49267       0.7507       1.1873
   1421.72741       2.5435       3.5869    1390.47741       0.7567       1.1629
   1421.71215       2.4604       3.6356    1390.46215       0.7409       1.1206
   1421.69689       2.4960       3.5841    1390.44689       0.7187       1.1459
   1421.68164       2.5134       3.5465    1390.43164       0.7736       1.1778
   1421.66638       2.4675       3.5849    1390.41638       0.7464       1.1404
   1421.65112       2.4300       3.5970    1390.40112       0.7947       1.1203
   1421.63586       2.5005       3.5788    1390.38586       0.7864       1.1947
   1421.62060       2.5662       3.5527    1390.37060       0.7250       1.2108
   1421.60534       2.5744       3.5958    1390.35534       0.7340       1.1352
   1421.59008       2.5515       3.6088    1390.34008       0.7827       1.1400
   1421.57482       2.5425       3.5348    1390.32482       0.7319       1.1486
   1421.55957       2.4298       3.4132    1390.30957       0.7041       1.1282
   1421.54431       2.4044       3.3090    1390.29431       0.7692       1.1700
   1421.52905       2.3030       3.1891    1390.27905       0.6838       1.1690
   1421.51379       2.2598       3.1652    1390.26379       0.7365       1.1968
   1421.49853       2.2393       3.1506    1390.24853       0.7530       1.1780
   1421.48327       2.0801       3.0168    1390.23327       0.7563       1.1437
   1421.46801       2.0403       2.8349    1390.21801       0.7676       1.1710
   1421.45275       1.9731       2.7744    1390.20275       0.7453       1.1724
   1421.43750       1.9659       2.6550    1390.18750       0.7685       1.2071
   1421.42224       1.9168       2.6177    1390.17224       0.7425       1.1947
   1421.40698       1.8648       2.4580    1390.15698       0.6945       1.1737
   1421.39172       1.7743       2.4331    1390.14172       0.7080       1.1653
   1421.37646       1.7012       2.3474    1390.12646       0.8109       1.1667
   1421.36120       1.6497       2.2926    1390.11120       0.7760       1.1777
   1421.34594       1.6239       2.2204    1390.09594       0.7925       1.1642
   1421.33068       1.5495       2.2069    1390.08068       0.7218       1.1825
   1421.31542       1.5392       2.1322    1390.06542       0.7815       1.1532
   1421.30017       1.5054       2.1436    1390.05017       0.7526       1.1623
   1421.28491       1.5031       1.9968    1390.03491       0.8010       1.1554
   1421.26965       1.4407       1.9836    1390.01965       0.6973       1.1392
   1421.25439       1.3885       1.9379    1390.00439       0.7976       1.1785
   1421.23913       1.3643       1.8129    1389.98913       0.7531       1.1681
   1421.22387       1.2734       1.7978    1389.97387       0.7785       1.1764
   1421.20861       1.3028       1.7916    1389.95861       0.6718       1.1932
   1421.19335       1.2425       1.7835    1389.94335       0.7055       1.2109
   1421.17810       1.1754       1.5911    1389.92810       0.6866       1.1957
   1421.16284       1.1834       1.6034    1389.91284       0.7585       1.1502
   1421.14758       1.1284       1.5123    1389.89758       0.7739       1.2018
   1421.13232       1.1274       1.5944    1389.88232       0.7654       1.2180
   1421.11706       1.1333       1.5741    1389.86706       0.7476       1.1918
   1421.10180       1.0847       1.5008    1389.85180       0.7769       1.2300
   1421.08654       1.0963       1.5100    1389.83654       0.7623       1.1616
   1421.07128       1.0918       1.5142    1389.82128       0.7461       1.2547
   1421.05603       1.0390       1.4577    1389.80603       0.6920       1.1951
   1421.04077       1.0084       1.4866    1389.79077       0.7325       1.2178
   1421.02551       1.0018       1.3727    1389.77551       0.7318       1.1311
   1421.01025       0.9777       1.4263    1389.76025       0.8048       1.1955
   1420.99499       1.0198       1.3962    1389.74499       0.8163       1.1462
   1420.97973       1.0150       1.2815    1389.72973       0.6556       1.2500
   1420.96447       0.9642       1.3963    1389.71447       0.7658       1.2355
   1420.94921       1.0070       1.4138    1389.69921       0.7215       1.2040
   1420.93396       0.9929       1.3771    1389.68396       0.7410       1.1856
   1420.91870       0.9982       1.3011    1389.66870       0.7481       1.2331
   1420.90344       0.9630       1.3802    1389.65344       0.7895       1.2025
   1420.88818       1.0384       1.3908    1389.63818       0.7513       1.1907
   1420.87292       1.0105       1.3792    1389.62292       0.7073       1.1936
   1420.85766       0.9855       1.4472    1389.60766       0.7110       1.2169
   1420.84240       1.0241       1.4176    1389.59240       0.7574       1.2403
   1420.82714       1.0414       1.3777    1389.57714       0.7699       1.2069
   1420.81188       1.0591       1.4371    1389.56188       0.7024       1.1692
   1420.79663       1.0297       1.4564    1389.54663       0.7606       1.1986
   1420.78137       1.0370       1.4399    1389.53137       0.7368       1.1953
   1420.76611       1.0808       1.4819    1389.51611       0.6970       1.1748
   1420.75085       1.0874       1.4882    1389.50085       0.7617       1.1479
   1420.73559       1.0164       1.4537    1389.48559       0.7282       1.2614
   1420.72033       1.0238       1.4663    1389.47033       0.7736       1.2134
   1420.70507       1.0137       1.4297    1389.45507       0.7831       1.2257
   1420.68981       0.9472       1.4674    1389.43981       0.7431       1.1972
   1420.67456       0.9428       1.3583    1389.42456       0.7150       1.2014
   1420.65930       0.9390       1.3756    1389.40930       0.7303       1.2123
   1420.64404       0.8629       1.2237    1389.39404       0.7794       1.2277
   1420.62878       0.6844       0.9776    1389.37878       0.7274       1.1699
   1420.61352       0.3760       0.6818    1389.36352       0.7672       1.1703
   1420.59826       0.4463       0.6492    1389.34826       0.7673       1.2049
   1420.58300       0.7034       0.9489    1389.33300       0.7232       1.1949
   1420.56774       0.9347       1.3290    1389.31774       0.7696       1.2306
   1420.55249       1.1566       1.6677    1389.30249       0.7371       1.2825
   1420.53723       1.4005       2.0492    1389.28723       0.7437       1.2229
   1420.52197       1.8122       2.6251    1389.27197       0.7546       1.1976
   1420.50671       2.2092       3.2672    1389.25671       0.7493       1.1854
   1420.49145       1.9716       2.9983    1389.24145       0.7162       1.2354
   1420.47619       1.8916       2.6735    1389.22619       0.7043       1.1955
   1420.46093       1.6444       2.2509    1389.21093       0.7165       1.2237
   1420.44567       1.6569       2.3414    1389.19567       0.7133       1.1974
   1420.43042       1.6067       2.2800    1389.18042       0.7469       1.1875
   1420.41516       0.9887       1.5594    1389.16516       0.7152       1.1880
   1420.39990       1.0296       1.3798    1389.14990       0.6894       1.2077
   1420.38464       0.9035       1.3875    1389.13464       0.6988       1.2018
   1420.36938       1.0952       1.6753    1389.11938       0.7487       1.0974
   1420.35412       1.3104       1.8730    1389.10412       0.6806       1.1729
   1420.33886       1.7515       2.4543    1389.08886       0.7295       1.2721
   1420.32360       4.1392       5.6522    1389.07360       0.7455       1.2630
   1420.30834       3.3977       4.8213    1389.05834       0.7189       1.2154
   1420.29309      -0.5031      -0.4928    1389.04309       0.7634       1.1834
   1420.27783       0.0689       0.1356    1389.02783       0.6495       1.2146
   1420.26257       0.6452       0.9708    1389.01257       0.7087       1.2071
   1420.24731       0.7008       1.0335    1388.99731       0.7180       1.1621
   1420.23205       0.7071       1.1187    1388.98205       0.7965       1.1856
   1420.21679       0.7976       1.2609    1388.96679       0.7288       1.1382
   1420.20153       0.8632       1.2748    1388.95153       0.7352       1.1791
   1420.18627       0.8716       1.2919    1388.93627       0.6719       1.1784
   1420.17102       0.8420       1.2775    1388.92102       0.7870       1.1886
   1420.15576       0.8192       1.3372    1388.90576       0.7833       1.1632
   1420.14050       0.8617       1.2513    1388.89050       0.7172       1.1952
   1420.12524       0.8244       1.3188    1388.87524       0.7488       1.2037
   1420.10998       0.8549       1.3049    1388.85998       0.7658       1.2026
   1420.09472       0.8634       1.3635    1388.84472       0.6827       1.1712
   1420.07946       0.8104       1.3463    1388.82946       0.7012       1.1308
   1420.06420       0.8476       1.3019    1388.81420       0.7745       1.1760
   1420.04895       0.8412       1.2911    1388.79895       0.7372       1.1975
   1420.03369       0.8940       1.3251    1388.78369       0.6869       1.1293
   1420.01843       0.8756       1.2902    1388.76843       0.7239       1.2015
   1420.00317       0.9252       1.3424    1388.75317       0.6798       1.2291
   1419.98791       0.9042       1.3603    1388.73791       0.7084       1.2126
   1419.97265       0.8639       1.4055    1388.72265       0.7046       1.1661
   1419.95739       0.9173       1.3630    1388.70739       0.6663       1.1670
   1419.94213       0.8532       1.4024    1388.69213       0.7912       1.1795
   1419.92687       0.9026       1.3874    1388.67687       0.7476       1.2107
   1419.91162       0.8913       1.3765    1388.66162       0.7008       1.1627
   1419.89636       0.9148       1.4198    1388.64636       0.7438       1.1775
   1419.88110       0.8826       1.3828    1388.63110       0.7427       1.1904
   1419.86584       0.9091       1.3637    1388.61584       0.7359       1.1010
   1419.85058       0.9263       1.4244    1388.60058       0.6893       1.1854
   1419.83532       0.8841       1.3606    1388.58532       0.7430       1.1415
   1419.82006       0.8395       1.4766    1388.57006       0.7015       1.1264
   1419.80480       0.9299       1.4740    1388.55480       0.7335       1.1330
   1419.78955       0.8894       1.3963    1388.53955       0.6878       1.2166
   1419.77429       0.9186       1.3457    1388.52429       0.7338       1.1569
   1419.75903       0.8965       1.4284    1388.50903       0.7612       1.1594
   1419.74377       0.8862       1.4756    1388.49377       0.7205       1.1632
   1419.72851       0.8520       1.5244    1388.47851       0.7416       1.1208
   1419.71325       0.8837       1.4953    1388.46325       0.6436       1.1521
   1419.69799       0.8685       1.5175    1388.44799       0.7083       1.1308
   1419.68273       0.9590       1.5250    1388.43273       0.7511       1.1155
   1419.66748       0.9611       1.5241    1388.41748       0.7094       1.1322
   1419.65222       0.9747       1.5515    1388.40222       0.7487       1.1395
   1419.63696       0.8856       1.4802    1388.38696       0.7449       1.1081
   1419.62170       0.9571       1.4827    1388.37170       0.7173       1.2058
   1419.60644       0.9359       1.5144    1388.35644       0.6633       1.1149
   1419.59118       0.9046       1.4692    1388.34118       0.7519       1.1724
   1419.57592       0.9025       1.4948    1388.32592       0.7036       1.1298
   1419.56066       0.9433       1.5449    1388.31066       0.6843       1.1404
   1419.54541       0.9788       1.5423    1388.29541       0.6670       1.1112
   1419.53015       0.9611       1.6177    1388.28015       0.6663       1.0641
   1419.51489       0.9078       1.5239    1388.26489       0.7004       1.1098
   1419.49963       1.0232       1.5638    1388.24963       0.6829       1.1443
   1419.48437       1.0048       1.6207    1388.23437       0.6742       1.0830
   1419.46911       0.9926       1.5824    1388.21911       0.6561       1.1321
   1419.45385       0.9509       1.6083    1388.20385       0.6458       1.0854
   1419.43859       0.9580       1.5783    1388.18859       0.7256       1.1097
   1419.42333       0.9662       1.6236    1388.17333       0.6898       1.0588
   1419.40808       0.9479       1.5937    1388.15808       0.6609       1.1109
   1419.39282       0.9611       1.6165    1388.14282       0.7066       1.1276
   1419.37756       0.9375       1.6454    1388.12756       0.7197       1.0997
   1419.36230       1.0491       1.6370    1388.11230       0.7012       1.0686
   1419.34704       0.9615       1.5828    1388.09704       0.7122       1.0622
   1419.33178       0.9697       1.6246    1388.08178       0.6815       1.0757
   1419.31652       1.0032       1.6043    1388.06652       0.7145       1.0470
   1419.30126       0.9675       1.6624    1388.05126       0.7231       1.0731
   1419.28601       1.0074       1.5889    1388.03601       0.7323       1.0827
   1419.27075       0.9995       1.6290    1388.02075       0.7222       1.0829
   1419.25549       0.9843       1.5959    1388.00549       0.6765       1.0719
   1419.24023       1.0357       1.6614    1387.99023       0.7516       1.1182
   1419.22497       1.0038       1.6579    1387.97497       0.6800       1.0667
   1419.20971       0.9766       1.6811    1387.95971       0.7787       1.0592
   1419.19445       1.0105       1.6771    1387.94445       0.6439       1.0707
   1419.17919       0.9983       1.6857    1387.92919       0.6533       1.0721
   1419.16394       0.9967       1.6679    1387.91394       0.7283       1.1279
   1419.14868       1.0106       1.6685    1387.89868       0.6546       1.0609
   1419.13342       0.9858       1.6491    1387.88342       0.7461       1.0845
   1419.11816       1.0223       1.7077    1387.86816       0.6737       0.9391
   1419.10290       1.0276       1.6766    1387.85290       0.6629       0.9374
   1419.08764       1.0583       1.7459    1387.83764       0.7659       1.0441
   1419.07238       1.0424       1.7272    1387.82238       0.7127       1.0468
   1419.05712       1.0691       1.6849    1387.80712       0.7123       1.0334
   1419.04187       1.0273       1.7228    1387.79187       0.7187       1.0476
   1419.02661       1.0126       1.6336    1387.77661       0.6714       0.9887
   1419.01135       1.0527       1.7068    1387.76135       0.7096       1.0036
   1418.99609       1.0600       1.7300    1387.74609       0.6759       0.9887
   1418.98083       1.0271       1.7550    1387.73083       0.6918       1.0114
   1418.96557       1.0320       1.7401    1387.71557       0.6590       1.0497
   1418.95031       1.0626       1.6970    1387.70031       0.6944       1.0017
   1418.93505       1.0591       1.7286    1387.68505       0.7289       1.0166
   1418.91979       1.1469       1.7515    1387.66979       0.7883       1.0032
   1418.90454       1.0440       1.7148    1387.65454       0.7148       1.0238
   1418.88928       1.0781       1.7774    1387.63928       0.6472       1.0117
   1418.87402       1.1108       1.7371    1387.62402       0.7229       0.9916
   1418.85876       1.0834       1.7655    1387.60876       0.7122       0.9916
   1418.84350       1.1088       1.7562    1387.59350       0.6713       0.9676
   1418.82824       1.1192       1.7776    1387.57824       0.7216       0.9900
   1418.81298       1.0660       1.7607    1387.56298       0.6394       0.9514
   1418.79772       1.0573       1.7974    1387.54772       0.7421       0.9680
   1418.78247       1.0561       1.7209    1387.53247       0.6072       0.9190
   1418.76721       1.0886       1.7344    1387.51721       0.6799       0.9318
   1418.75195       1.0814       1.7851    1387.50195       0.6921       0.9723
   1418.73669       1.0767       1.7022    1387.48669       0.7243       0.8985
   1418.72143       1.1077       1.8198    1387.47143       0.6729       0.9407
   1418.70617       1.0916       1.7504    1387.45617       0.7124       0.8850
   1418.69091       1.0773       1.7894    1387.44091       0.6743       0.9322
   1418.67565       1.0992       1.7997    1387.42565       0.7469       0.9199
   1418.66040       1.1269       1.7315    1387.41040       0.7112       0.9639
   1418.64514       1.0959       1.7410    1387.39514       0.6803       0.9423
   1418.62988       1.1327       1.7293    1387.37988       0.7425       0.9225
   1418.61462       1.0995       1.7049    1387.36462       0.6594       0.8778
   1418.59936       1.1154       1.6899    1387.34936       0.6797       0.8746
   1418.58410       1.0848       1.7693    1387.33410       0.7255       0.8601
   1418.56884       1.1079       1.7119    1387.31884       0.6421       0.8326
   1418.55358       1.1177       1.7420    1387.30358       0.7026       0.8488
   1418.53833       1.1409       1.7570    1387.28833       0.6965       0.9258
   1418.52307       1.1089       1.8089    1387.27307       0.6719       0.9250
   1418.50781       1.1484       1.7864    1387.25781       0.6706       0.9002
   1418.49255       1.1720       1.7692    1387.24255       0.6992       0.8753
   1418.47729       1.1200       1.7803    1387.22729       0.6974       0.8593
   1418.46203       1.1537       1.8127    1387.21203       0.6836       0.8880
   1418.44677       1.1271       1.7688    1387.19677       0.7458       0.8686
   1418.43151       1.1534       1.7461    1387.18151       0.7358       0.8798
   1418.41625       1.1367       1.7022    1387.16625       0.6683       0.8606
   1418.40100       1.1606       1.7752    1387.15100       0.6855       0.8258
   1418.38574       1.1270       1.7470    1387.13574       0.6430       0.8120
   1418.37048       1.1888       1.7397    1387.12048       0.6873       0.8668
   1418.35522       1.1809       1.6963    1387.10522       0.6833       0.8125
   1418.33996       1.1520       1.7005    1387.08996       0.6937       0.8336
   1418.32470       1.1563       1.7419    1387.07470       0.6418       0.8174
   1418.30944       1.1372       1.6938    1387.05944       0.7214       0.8222
   1418.29418       1.1976       1.7623    1387.04418       0.7062       0.8395
   1418.27893       1.2058       1.7298    1387.02893       0.7310       0.8519
   1418.26367       1.1652       1.7279    1387.01367       0.7173       0.8102
   1418.24841       1.1508       1.7333    1386.99841       0.6708       0.7862
   1418.23315       1.1603       1.7142    1386.98315       0.7186       0.8556
   1418.21789       1.1835       1.6875    1386.96789       0.6531       0.8459
   1418.20263       1.1990       1.7499    1386.95263       0.7552       0.8339
   1418.18737       1.1873       1.7512    1386.93737       0.6511       0.8111
   1418.17211       1.2316       1.7109    1386.92211       0.6888       0.8470
   1418.15686       1.1804       1.6201    1386.90686       0.7692       0.7862
   1418.14160       1.2086       1.6878    1386.89160       0.7308       0.7833
   1418.12634       1.1882       1.6442    1386.87634       0.7392       0.7765
   1418.11108       1.1921       1.6802    1386.86108       0.7209       0.7973
   1418.09582       1.1651       1.6796    1386.84582       0.6986       0.7575
   1418.08056       1.1396       1.6569    1386.83056       0.7277       0.7892
   1418.06530       1.1888       1.5977    1386.81530       0.7249       0.7448
   1418.05004       1.1506       1.6833    1386.80004       0.7639       0.7703
   1418.03479       1.1704       1.6627    1386.78479       0.6958       0.7194
   1418.01953       1.1555       1.7258    1386.76953       0.7176       0.7559
   1418.00427       1.1794       1.7203    1386.75427       0.7579       0.7575
   1417.98901       1.1634       1.5940    1386.73901       0.7707       0.6916
   1417.97375       1.1683       1.6704    1386.72375       0.7942       0.7444
   1417.95849       1.1870       1.5682    1386.70849       0.6950       0.7704
   1417.94323       1.2345       1.6295    1386.69323       0.7581       0.7512
   1417.92797       1.1871       1.6645    1386.67797       0.7921       0.7438
   1417.91271       1.2648       1.6316    1386.66271       0.7624       0.7935
   1417.89746       1.2418       1.6768    1386.64746       0.7441       0.7300
   1417.88220       1.2086       1.6126    1386.63220       0.7845       0.7346
   1417.86694       1.1938       1.6576    1386.61694       0.7817       0.6889
   1417.85168       1.1995       1.5963    1386.60168       0.7968       0.7377
   1417.83642       1.2739       1.5555    1386.58642       0.7600       0.7505
   1417.82116       1.1920       1.5902    1386.57116       0.8175       0.6923
   1417.80590       1.2185       1.5990    1386.55590       0.7637       0.6860
   1417.79064       1.2383       1.6135    1386.54064       0.7106       0.7449
   1417.77539       1.2110       1.5000    1386.52539       0.7712       0.7393
   1417.76013       1.2526       1.5200    1386.51013       0.7619       0.7056
   1417.74487       1.2179       1.5366    1386.49487       0.7489       0.6741
   1417.72961       1.2364       1.5266    1386.47961       0.7591       0.6660
   1417.71435       1.2279       1.5882    1386.46435       0.7940       0.6624
   1417.69909       1.1432       1.5556    1386.44909       0.7666       0.7225
   1417.68383       1.2394       1.5012    1386.43383       0.8113       0.6865
   1417.66857       1.1997       1.5839    1386.41857       0.8646       0.6739
   1417.65332       1.2271       1.5465    1386.40332       0.8446       0.6685
   1417.63806       1.2379       1.5026    1386.38806       0.8190       0.6990
   1417.62280       1.2634       1.5328    1386.37280       0.8294       0.6529
   1417.60754       1.2822       1.5331    1386.35754       0.7993       0.7055
   1417.59228       1.2082       1.4941    1386.34228       0.8185       0.6872
   1417.57702       1.2837       1.4993    1386.32702       0.7817       0.7021
   1417.56176       1.2277       1.4487    1386.31176       0.8678       0.6807
   1417.54650       1.1815       1.4851    1386.29650       0.8532       0.6768
   1417.53125       1.1945       1.5125    1386.28125       0.8729       0.7241
   1417.51599       1.2329       1.4022    1386.26599       0.8549       0.6205
   1417.50073       1.2072       1.4824    1386.25073       0.8153       0.6611
   1417.48547       1.2448       1.4056    1386.23547       0.8775       0.6341
   1417.47021       1.1970       1.4064    1386.22021       0.7872       0.7032
   1417.45495       1.2094       1.4728    1386.20495       0.8712       0.6384
   1417.43969       1.2081       1.4964    1386.18969       0.8585       0.6660
   1417.42443       1.2077       1.3409    1386.17443       0.8322       0.6774
   1417.40917       1.2456       1.4729    1386.15917       0.8569       0.6712
   1417.39392       1.2069       1.3597    1386.14392       0.8419       0.6653
   1417.37866       1.1783       1.4414    1386.12866       0.8716       0.6700
   1417.36340       1.2372       1.4186    1386.11340       0.8474       0.6303
   1417.34814       1.2219       1.3971    1386.09814       0.8371       0.6894
   1417.33288       1.1908       1.4048    1386.08288       0.8610       0.6519
   1417.31762       1.2537       1.3064    1386.06762       0.8546       0.6754
   1417.30236       1.1737       1.4032    1386.05236       0.8895       0.6555
   1417.28710       1.2382       1.3707    1386.03710       0.8896       0.6502
   1417.27185       1.2562       1.4364    1386.02185       0.8976       0.6540
   1417.25659       1.2013       1.3575    1386.00659       0.8643       0.6529
   1417.24133       1.2249       1.3321    1385.99133       0.8613       0.6642
   1417.22607       1.2450       1.4189    1385.97607       0.8712       0.6201
   1417.21081       1.1971       1.2864    1385.96081       0.8988       0.6236
   1417.19555       1.1871       1.3152    1385.94555       0.9187       0.6509
   1417.18029       1.2105       1.3439    1385.93029       0.8658       0.6004
   1417.16503       1.2028       1.3022    1385.91503       0.8630       0.6445
   1417.14978       1.1802       1.2155    1385.89978       0.9021       0.6317
   1417.13452       1.2416       1.3729    1385.88452       0.8937       0.6806
   1417.11926       1.2025       1.3642    1385.86926       0.9326       0.7008
   1417.10400       1.2111       1.2428    1385.85400       0.9396       0.6529
   1417.08874       1.2006       1.2028    1385.83874       0.9146       0.6296
   1417.07348       1.1970       1.2429    1385.82348       0.8723       0.6510
   1417.05822       1.1797       1.2051    1385.80822       0.8755       0.6679
   1417.04296       1.2346       1.3337    1385.79296       0.9296       0.6708
   1417.02771       1.2133       1.2633    1385.77771       0.8898       0.6396
   1417.01245       1.2062       1.1930    1385.76245       0.8877       0.6489
   1416.99719       1.2179       1.2458    1385.74719       0.9224       0.6684
   1416.98193       1.2352       1.2652    1385.73193       0.9170       0.6397
   1416.96667       1.2038       1.2386    1385.71667       0.9374       0.6585
   1416.95141       1.2277       1.1598    1385.70141       0.9017       0.6957
   1416.93615       1.1979       1.1760    1385.68615       0.9715       0.6937
   1416.92089       1.1924       1.1695    1385.67089       0.9243       0.6735
   1416.90563       1.1405       1.1927    1385.65563       0.8507       0.6560
   1416.89038       1.2299       1.1936    1385.64038       0.9602       0.6369
   1416.87512       1.2048       1.1533    1385.62512       0.9408       0.6364
   1416.85986       1.1883       1.0671    1385.60986       0.9556       0.6568
   1416.84460       1.1995       1.2081    1385.59460       0.9234       0.6267
   1416.82934       1.1734       1.1744    1385.57934       0.9680       0.5871
   1416.81408       1.1944       1.1411    1385.56408       0.9053       0.6422
   1416.79882       1.2226       1.1060    1385.54882       0.9961       0.6429
   1416.78356       1.2259       1.1138    1385.53356       0.9444       0.6363
   1416.76831       1.1943       1.0851    1385.51831       0.9430       0.6800
   1416.75305       1.1634       1.0837    1385.50305       0.9509       0.7090
   1416.73779       1.1447       1.0711    1385.48779       0.9479       0.6616
   1416.72253       1.1773       1.0308    1385.47253       0.9623       0.6683
   1416.70727       1.1184       1.0845    1385.45727       0.9662       0.6447
   1416.69201       1.2101       1.0785    1385.44201       0.9340       0.6425
   1416.67675       1.2262       1.1067    1385.42675       0.9578       0.6884
   1416.66149       1.1635       1.0282    1385.41149       0.9441       0.6367
   1416.64624       1.1173       1.1741    1385.39624       0.9867       0.7119
   1416.63098       1.1588       1.1205    1385.38098       0.9990       0.6619
   1416.61572       1.1470       1.0663    1385.36572       0.9727       0.6675
   1416.60046       1.2086       1.0517    1385.35046       0.9719       0.6800
   1416.58520       1.2097       1.0815    1385.33520       1.0017       0.6721
   1416.56994       1.1632       1.0423    1385.31994       1.0101       0.6544
   1416.55468       1.1502       1.0317    1385.30468       0.9834       0.6331
   1416.53942       1.1768       1.0133    1385.28942       1.0057       0.6235
   1416.52417       1.1345       1.0404    1385.27417       0.9523       0.7162
   1416.50891       1.1441       0.9796    1385.25891       0.9704       0.6373
   1416.49365       1.1520       1.0545    1385.24365       0.9603       0.7024
   1416.47839       1.1432       0.9196    1385.22839       1.0124       0.6595
   1416.46313       1.0927       0.9686    1385.21313       0.9420       0.6489
   1416.44787       1.1923       0.9569    1385.19787       0.9801       0.7146
   1416.43261       1.1596       0.9685    1385.18261       0.9787       0.7041
   1416.41735       1.1953       0.9886    1385.16735       1.0150       0.5936
   1416.40209       1.1243       1.0280    1385.15209       1.0194       0.6498
   1416.38684       1.1643       0.9984    1385.13684       0.9973       0.7118
   1416.37158       1.1075       0.9327    1385.12158       0.9963       0.6367
   1416.35632       1.0986       0.9726    1385.10632       0.9938       0.6453
   1416.34106       1.1100       0.9715    1385.09106       1.0610       0.7148
   1416.32580       1.1406       0.9316    1385.07580       0.9368       0.6969
   1416.31054       1.1394       0.8501    1385.06054       1.0521       0.6495
   1416.29528       1.1303       0.9782    1385.04528       1.0168       0.6400
   1416.28002       1.0887       0.9317    1385.03002       1.0954       0.6935
   1416.26477       1.0535       0.9253    1385.01477       0.9754       0.6326
   1416.24951       1.1722       0.8925    1384.99951       1.0027       0.6834
   1416.23425       1.0766       0.9252    1384.98425       0.9975       0.6762
   1416.21899       1.1665       0.9528    1384.96899       0.9460       0.6453
   1416.20373       1.1112       0.9327    1384.95373       1.0300       0.6389
   1416.18847       1.1111       0.8449    1384.93847       1.0273       0.6892
   1416.17321       1.1399       0.9334    1384.92321       1.0070       0.6473
   1416.15795       1.1137       0.9218    1384.90795       0.9778       0.7426
   1416.14270       1.1519       0.9040    1384.89270       1.0490       0.6530
   1416.12744       1.1430       0.9102    1384.87744       1.0476       0.6582
   1416.11218       1.0805       0.8813    1384.86218       1.0107       0.6968
   1416.09692       1.0821       0.9462    1384.84692       0.9757       0.7186
   1416.08166       1.0715       0.8547    1384.83166       1.0038       0.6952
   1416.06640       1.0704       0.8730    1384.81640       0.9566       0.7116
   1416.05114       1.0708       0.8668    1384.80114       1.0258       0.6097
   1416.03588       1.1114       0.8370    1384.78588       0.9868       0.6786
   1416.02062       1.0911       0.8208    1384.77062       0.9925       0.7196
   1416.00537       1.1241       0.8633    1384.75537       0.9934       0.6868
   1415.99011       1.1134       0.7759    1384.74011       0.9609       0.6512
   1415.97485       1.0575       0.8405    1384.72485       1.0128       0.6655
   1415.95959       1.0795       0.8259    1384.70959       1.0065       0.7340
   1415.94433       1.0815       0.7730    1384.69433       0.9782       0.6829
   1415.92907       1.0353       0.8548    1384.67907       0.9569       0.7262
   1415.91381       1.0483       0.8672    1384.66381       0.9683       0.7537
   1415.89855       1.1034       0.8051    1384.64855       0.9685       0.6756
   1415.88330       1.0938       0.8422    1384.63330       0.9464       0.7576
   1415.86804       1.1393       0.8459    1384.61804       0.9800       0.7422
   1415.85278       1.0411       0.8246    1384.60278       0.9777       0.7770
   1415.83752       1.0611       0.7753    1384.58752       0.9701       0.7965
   1415.82226       1.1383       0.8449    1384.57226       0.9761       0.7409
   1415.80700       1.0977       0.7820    1384.55700       0.9193       0.7430
   1415.79174       1.0614       0.8405    1384.54174       0.9420       0.7779
   1415.77648       1.0043       0.7199    1384.52648       0.9603       0.7419
   1415.76123       1.0887       0.7393    1384.51123       0.9373       0.7140
   1415.74597       1.0711       0.7083    1384.49597       0.9271       0.7141
   1415.73071       1.0382       0.7685    1384.48071       0.9125       0.7346
   1415.71545       1.0785       0.8025    1384.46545       1.0318       0.7281
   1415.70019       1.0405       0.7685    1384.45019       0.9703       0.7496
   1415.68493       1.1094       0.7456    1384.43493       1.0543       0.7828
   1415.66967       1.0674       0.7606    1384.41967       0.9997       0.7129
   1415.65441       1.0557       0.7580    1384.40441       0.9911       0.7804
   1415.63916       1.0247       0.7968    1384.38916       0.9942       0.7297
   1415.62390       1.0690       0.7693    1384.37390       0.9761       0.7852
   1415.60864       1.0885       0.7717    1384.35864       1.0455       0.7133
   1415.59338       1.0785       0.7639    1384.34338       0.9693       0.7045
   1415.57812       1.1148       0.7139    1384.32812       1.0013       0.7294
   1415.56286       1.0821       0.7219    1384.31286       1.0257       0.7349
   1415.54760       1.0499       0.7914    1384.29760       1.0130       0.7510
   1415.53234       1.0239       0.7606    1384.28234       0.9579       0.7384
   1415.51708       1.0318       0.7331    1384.26708       1.0201       0.8009
   1415.50183       1.0462       0.6788    1384.25183       1.0488       0.7432
   1415.48657       1.0617       0.7357    1384.23657       1.0676       0.7468
   1415.47131       1.1436       0.7160    1384.22131       1.0239       0.7578
   1415.45605       1.0440       0.7861    1384.20605       1.0130       0.8064
   1415.44079       1.0508       0.6777    1384.19079       1.0386       0.7677
   1415.42553       1.0367       0.6832    1384.17553       0.9884       0.7953
   1415.41027       0.9947       0.6794    1384.16027       0.9568       0.7504
   1415.39501       1.0594       0.6655    1384.14501       1.0474       0.7525
   1415.37976       1.0197       0.7217    1384.12976       1.0864       0.8086
   1415.36450       1.0303       0.7093    1384.11450       0.9546       0.8169
   1415.34924       1.0176       0.6977    1384.09924       1.0234       0.8331
   1415.33398       0.9882       0.7174    1384.08398       1.0078       0.7833
   1415.31872       1.0499       0.6541    1384.06872       1.0129       0.8199
   1415.30346       1.0810       0.5827    1384.05346       1.0090       0.8320
   1415.28820       1.0205       0.7330    1384.03820       1.0210       0.7817
   1415.27294       1.0854       0.6726    1384.02294       1.0375       0.8354
   1415.25769       1.0880       0.7069    1384.00769       1.0128       0.8613
   1415.24243       1.0465       0.6369    1383.99243       0.9943       0.8592
   1415.22717       1.0475       0.7466    1383.97717       0.9766       0.8144
   1415.21191       0.9873       0.7384    1383.96191       1.0063       0.8124
   1415.19665       1.0301       0.7233    1383.94665       0.9887       0.8141
   1415.18139       1.0519       0.6832    1383.93139       0.9382       0.8099
   1415.16613       1.0703       0.6632    1383.91613       1.0379       0.8699
   1415.15087       1.0219       0.6894    1383.90087       0.9740       0.8736
   1415.13562       1.0015       0.6788    1383.88562       0.9202       0.8556
   1415.12036       1.0116       0.6961    1383.87036       0.9339       0.8986
   1415.10510       1.0777       0.6051    1383.85510       0.8505       0.9096
   1415.08984       1.0465       0.6858    1383.83984       0.9090       0.9128
   1415.07458       1.0461       0.6525    1383.82458       0.8494       0.9117
   1415.05932       1.0595       0.6650    1383.80932       0.9255       0.9264
   1415.04406       1.0129       0.6348    1383.79406       0.9043       0.8603
   1415.02880       1.0438       0.6713    1383.77880       0.9885       0.8846
   1415.01354       1.0768       0.6613    1383.76354       0.7814       0.9171
   1414.99829       0.9832       0.6694    1383.74829       0.8201       0.9097
   1414.98303       1.0515       0.6477    1383.73303       0.8094       0.9234
   1414.96777       1.0715       0.6830    1383.71777       0.8565       0.8957
   1414.95251       0.9866       0.6276    1383.70251       0.8202       0.8731
   1414.93725       1.0699       0.7040    1383.68725       0.7273       0.9059
   1414.92199       1.0742       0.5926    1383.67199       0.7560       0.9790
   1414.90673       1.0354       0.6588    1383.65673       0.7137       0.9627
   1414.89147       1.0278       0.7105    1383.64147       0.6832       0.9598
   1414.87622       1.0172       0.6990    1383.62622       0.7562       0.9410
