#     FILENAME=Skynet_59284_M31_30kpc_MBilakhia_52429_1403.A.onoff.cal.txt
#     BASENAME=Skynet_59284_M31_30kpc_MBilakhia_52429_1403
#      CONTROL=SKYNET
#     PROJCODE=Skynet_59284_M31_30kpc_MBilakhia_52429
#     DATAROOT=/raid/scratch/cyborg/SkynetData
#      DATADIR=/raid/scratch/cyborg
#     DATADIR2=/raid/scratch/cyborg/SkynetData/Skynet_59284_M31_30kpc_MBilakhi
#     SCANNAME=2019_06_26_10
#     SRC_NAME=M31_30kpc_MBilakhia
#     OBSERVER=unioncollege_21317
#     DATE_OBS=2021-03-11T12:25:02.260
#        OBSID=52429
#      SCANNUM=1403
#          MJD=59284.5173873
#          UTC=44702
#     SCANTYPE=onoff
#     DATAMODE=HIRES
#     RECEIVER=Rx1_2
#      OBSFREQ=1395.0000
# Actual_FREQ1=1420.4000,
# Actual_FREQ2=1420.4000
#    LO1Tuning=6870.4000
#     RFFILTER=1355_1435
#        OBSBW=-15.6250
#     EFFBANDW=15.6250
#        NCHAN=1024
#    STARTCHAN=51
#     STOPCHAN=972
#         TINT=0.3000
#         TBIN=0.00419430
#       ACCLEN=2048 
#     DURATION=245.10
#     EXPOSURE=187.47
#        FOCUS=37.071
#       RA,DEC=00:35:51.49, 39:31:57.47
#      RA(deg)=7.60335
#     DEC(deg)=39.53248
#   WIDTH(deg)=2.0955x0.0338
#    AZIM(deg)=55.8211
#    ELEV(deg)=22.2405
#     COORDREF=RA_DEC_
#         HREF=8.8950
#         VREF=39.5326
#      RADESYS=FK5
#       OFFSYS=RADEC
#      EQUINOX=2000.00
#     IFATTENS=21.00, 15.00
#   BALANCELEV=1.200 
#   POWER_XLYR=[1.23, 1.22] 
#       VELDEF=RADI-OBS 
#     VELOCITY=0.000 
#         NPOL=2 
#      POLMODE=Linear 
#      POLTYPE=XXYY 
#      WARNING=None 
#     NOISECAL=HI 
#       PRECAL=2 
#      POSTCAL=2 
#     CRYOTEMP=15 
#      BOXTEMP=26 
#         TSYS=XX1:35.61, YY1:42.81
#         TSYS=XX2:35.61, YY2:42.83
#         TCAL=XX1:9.17, YY1:10.07
#         TCAL=XX2:9.17, YY2:10.07
# Calibrated spectra: Tsys*(ON-OFF)/OFF 
#                
#                
#Freq1(MHz)         XX1          YY1   Freq2(MHz)       XX2         YY2 
   1427.43430       1.0208       0.3830    1427.43430       1.0207       0.3831
   1427.41904       0.9744       0.5272    1427.41904       0.9743       0.5274
   1427.40378       1.0331       0.5121    1427.40378       1.0330       0.5124
   1427.38853       1.0304       0.4958    1427.38853       1.0303       0.4960
   1427.37327       0.9016       0.3850    1427.37327       0.9015       0.3852
   1427.35801       0.9900       0.4108    1427.35801       0.9899       0.4109
   1427.34275       1.0327       0.3655    1427.34275       1.0326       0.3656
   1427.32749       1.0397       0.4617    1427.32749       1.0396       0.4619
   1427.31223       1.0051       0.4069    1427.31223       1.0050       0.4071
   1427.29697       1.0213       0.4694    1427.29697       1.0212       0.4696
   1427.28171       0.9783       0.3962    1427.28171       0.9782       0.3964
   1427.26646       1.0238       0.4467    1427.26646       1.0237       0.4469
   1427.25120       0.9987       0.5116    1427.25120       0.9986       0.5119
   1427.23594       0.9489       0.4910    1427.23594       0.9488       0.4912
   1427.22068       1.0537       0.4077    1427.22068       1.0536       0.4079
   1427.20542       0.9880       0.4909    1427.20542       0.9879       0.4911
   1427.19016       1.0185       0.4816    1427.19016       1.0184       0.4818
   1427.17490       0.9919       0.4637    1427.17490       0.9918       0.4639
   1427.15964       0.9530       0.3825    1427.15964       0.9529       0.3827
   1427.14438       0.9958       0.4299    1427.14438       0.9957       0.4301
   1427.12913       0.9627       0.3940    1427.12913       0.9626       0.3942
   1427.11387       0.9863       0.4592    1427.11387       0.9862       0.4594
   1427.09861       1.0239       0.3538    1427.09861       1.0237       0.3539
   1427.08335       0.9071       0.3834    1427.08335       0.9070       0.3835
   1427.06809       0.9927       0.3783    1427.06809       0.9926       0.3785
   1427.05283       0.9698       0.4017    1427.05283       0.9697       0.4019
   1427.03757       1.0232       0.4328    1427.03757       1.0231       0.4330
   1427.02231       0.9821       0.4220    1427.02231       0.9820       0.4222
   1427.00706       0.9405       0.3668    1427.00706       0.9404       0.3670
   1426.99180       0.9689       0.5261    1426.99180       0.9688       0.5264
   1426.97654       1.0101       0.3963    1426.97654       1.0100       0.3964
   1426.96128       0.8897       0.3474    1426.96128       0.8896       0.3475
   1426.94602       0.9618       0.4670    1426.94602       0.9617       0.4673
   1426.93076       0.9337       0.3659    1426.93076       0.9336       0.3661
   1426.91550       1.0173       0.4422    1426.91550       1.0172       0.4424
   1426.90024       0.9867       0.3850    1426.90024       0.9866       0.3852
   1426.88499       0.9986       0.4319    1426.88499       0.9985       0.4321
   1426.86973       0.9708       0.4340    1426.86973       0.9707       0.4342
   1426.85447       0.9080       0.3890    1426.85447       0.9079       0.3892
   1426.83921       0.9333       0.4122    1426.83921       0.9332       0.4124
   1426.82395       0.9889       0.3850    1426.82395       0.9888       0.3852
   1426.80869       0.9195       0.4570    1426.80869       0.9194       0.4572
   1426.79343       0.9533       0.5110    1426.79343       0.9532       0.5113
   1426.77817       0.9906       0.3709    1426.77817       0.9905       0.3710
   1426.76292       0.9517       0.4063    1426.76292       0.9516       0.4065
   1426.74766       1.0170       0.3195    1426.74766       1.0169       0.3196
   1426.73240       0.9233       0.3699    1426.73240       0.9232       0.3701
   1426.71714       0.9109       0.3472    1426.71714       0.9108       0.3473
   1426.70188       0.9341       0.4077    1426.70188       0.9340       0.4079
   1426.68662       0.9564       0.4265    1426.68662       0.9563       0.4267
   1426.67136       0.9358       0.3809    1426.67136       0.9357       0.3811
   1426.65610       0.9201       0.4070    1426.65610       0.9200       0.4071
   1426.64084       0.9370       0.4158    1426.64084       0.9369       0.4160
   1426.62559       0.8123       0.4567    1426.62559       0.8122       0.4569
   1426.61033       0.8637       0.3724    1426.61033       0.8636       0.3726
   1426.59507       0.9323       0.3930    1426.59507       0.9322       0.3932
   1426.57981       0.9134       0.4387    1426.57981       0.9133       0.4389
   1426.56455       0.8982       0.4911    1426.56455       0.8981       0.4913
   1426.54929       0.8853       0.4424    1426.54929       0.8852       0.4426
   1426.53403       0.8735       0.2979    1426.53403       0.8734       0.2980
   1426.51877       0.8693       0.4267    1426.51877       0.8692       0.4269
   1426.50352       0.9514       0.4441    1426.50352       0.9513       0.4443
   1426.48826       0.8298       0.3646    1426.48826       0.8297       0.3647
   1426.47300       0.8374       0.3790    1426.47300       0.8373       0.3792
   1426.45774       0.9057       0.4241    1426.45774       0.9056       0.4243
   1426.44248       0.8644       0.3876    1426.44248       0.8643       0.3878
   1426.42722       0.8745       0.3777    1426.42722       0.8744       0.3778
   1426.41196       0.9175       0.4609    1426.41196       0.9174       0.4611
   1426.39670       0.9001       0.3407    1426.39670       0.9000       0.3409
   1426.38145       0.8310       0.4281    1426.38145       0.8309       0.4283
   1426.36619       0.8105       0.5061    1426.36619       0.8104       0.5063
   1426.35093       0.8160       0.4058    1426.35093       0.8159       0.4059
   1426.33567       0.9069       0.4401    1426.33567       0.9068       0.4403
   1426.32041       0.8030       0.4021    1426.32041       0.8029       0.4023
   1426.30515       0.7778       0.4059    1426.30515       0.7777       0.4061
   1426.28989       0.8094       0.5086    1426.28989       0.8093       0.5088
   1426.27463       0.8604       0.4396    1426.27463       0.8604       0.4398
   1426.25937       0.8238       0.4225    1426.25937       0.8237       0.4227
   1426.24412       0.7120       0.4157    1426.24412       0.7119       0.4159
   1426.22886       0.7435       0.4589    1426.22886       0.7434       0.4591
   1426.21360       0.8178       0.4267    1426.21360       0.8177       0.4269
   1426.19834       0.7684       0.4453    1426.19834       0.7683       0.4455
   1426.18308       0.8031       0.5463    1426.18308       0.8030       0.5465
   1426.16782       0.8147       0.3994    1426.16782       0.8147       0.3996
   1426.15256       0.7905       0.4885    1426.15256       0.7904       0.4887
   1426.13730       0.8341       0.4956    1426.13730       0.8340       0.4958
   1426.12205       0.6793       0.4861    1426.12205       0.6793       0.4863
   1426.10679       0.8006       0.4696    1426.10679       0.8005       0.4698
   1426.09153       0.7850       0.4662    1426.09153       0.7849       0.4664
   1426.07627       0.7688       0.4351    1426.07627       0.7687       0.4353
   1426.06101       0.7691       0.5213    1426.06101       0.7691       0.5215
   1426.04575       0.7198       0.4791    1426.04575       0.7198       0.4793
   1426.03049       0.8152       0.4510    1426.03049       0.8151       0.4512
   1426.01523       0.7571       0.4737    1426.01523       0.7570       0.4739
   1425.99998       0.7812       0.4636    1425.99998       0.7811       0.4638
   1425.98472       0.7611       0.4988    1425.98472       0.7610       0.4990
   1425.96946       0.7389       0.5574    1425.96946       0.7388       0.5576
   1425.95420       0.7042       0.4241    1425.95420       0.7041       0.4243
   1425.93894       0.7535       0.5264    1425.93894       0.7534       0.5266
   1425.92368       0.7175       0.5651    1425.92368       0.7174       0.5654
   1425.90842       0.7032       0.4673    1425.90842       0.7031       0.4675
   1425.89316       0.7264       0.5228    1425.89316       0.7264       0.5230
   1425.87791       0.7294       0.4956    1425.87791       0.7293       0.4958
   1425.86265       0.7139       0.4623    1425.86265       0.7138       0.4625
   1425.84739       0.7013       0.5012    1425.84739       0.7013       0.5014
   1425.83213       0.7295       0.5396    1425.83213       0.7294       0.5399
   1425.81687       0.6102       0.4405    1425.81687       0.6101       0.4407
   1425.80161       0.6792       0.4300    1425.80161       0.6791       0.4302
   1425.78635       0.6588       0.5188    1425.78635       0.6588       0.5190
   1425.77109       0.6359       0.5513    1425.77109       0.6358       0.5516
   1425.75583       0.6504       0.5459    1425.75583       0.6503       0.5461
   1425.74058       0.6875       0.5269    1425.74058       0.6875       0.5271
   1425.72532       0.6713       0.4877    1425.72532       0.6712       0.4879
   1425.71006       0.7052       0.4877    1425.71006       0.7051       0.4880
   1425.69480       0.5874       0.4407    1425.69480       0.5873       0.4409
   1425.67954       0.6229       0.5206    1425.67954       0.6229       0.5208
   1425.66428       0.6797       0.5040    1425.66428       0.6797       0.5043
   1425.64902       0.6695       0.5180    1425.64902       0.6695       0.5182
   1425.63376       0.7127       0.5089    1425.63376       0.7126       0.5091
   1425.61851       0.6355       0.5236    1425.61851       0.6354       0.5239
   1425.60325       0.6318       0.5468    1425.60325       0.6317       0.5471
   1425.58799       0.5833       0.6452    1425.58799       0.5832       0.6455
   1425.57273       0.6570       0.5709    1425.57273       0.6569       0.5711
   1425.55747       0.5048       0.4894    1425.55747       0.5048       0.4896
   1425.54221       0.6111       0.5838    1425.54221       0.6111       0.5841
   1425.52695       0.6650       0.5995    1425.52695       0.6649       0.5997
   1425.51169       0.5411       0.5144    1425.51169       0.5411       0.5146
   1425.49644       0.5591       0.6583    1425.49644       0.5591       0.6586
   1425.48118       0.6450       0.5435    1425.48118       0.6449       0.5437
   1425.46592       0.6382       0.5819    1425.46592       0.6381       0.5821
   1425.45066       0.5049       0.5717    1425.45066       0.5048       0.5719
   1425.43540       0.5674       0.5880    1425.43540       0.5674       0.5883
   1425.42014       0.5960       0.5524    1425.42014       0.5960       0.5526
   1425.40488       0.5934       0.5440    1425.40488       0.5933       0.5442
   1425.38962       0.6018       0.6876    1425.38962       0.6018       0.6879
   1425.37437       0.5140       0.7366    1425.37437       0.5140       0.7369
   1425.35911       0.5107       0.5425    1425.35911       0.5107       0.5428
   1425.34385       0.6302       0.5708    1425.34385       0.6301       0.5711
   1425.32859       0.6348       0.5809    1425.32859       0.6347       0.5812
   1425.31333       0.5992       0.6321    1425.31333       0.5991       0.6324
   1425.29807       0.5662       0.5166    1425.29807       0.5661       0.5168
   1425.28281       0.5958       0.5954    1425.28281       0.5958       0.5957
   1425.26755       0.5662       0.5708    1425.26755       0.5661       0.5710
   1425.25229       0.5523       0.6334    1425.25229       0.5522       0.6337
   1425.23704       0.4709       0.6197    1425.23704       0.4709       0.6200
   1425.22178       0.4851       0.5484    1425.22178       0.4851       0.5486
   1425.20652       0.5290       0.7000    1425.20652       0.5289       0.7003
   1425.19126       0.4984       0.5995    1425.19126       0.4983       0.5997
   1425.17600       0.5016       0.5616    1425.17600       0.5016       0.5619
   1425.16074       0.5323       0.6284    1425.16074       0.5323       0.6287
   1425.14548       0.6035       0.6395    1425.14548       0.6034       0.6398
   1425.13022       0.5531       0.6115    1425.13022       0.5530       0.6118
   1425.11497       0.4727       0.6295    1425.11497       0.4727       0.6297
   1425.09971       0.4704       0.6437    1425.09971       0.4703       0.6440
   1425.08445       0.4180       0.5806    1425.08445       0.4179       0.5809
   1425.06919       0.4837       0.6425    1425.06919       0.4836       0.6427
   1425.05393       0.4642       0.6375    1425.05393       0.4642       0.6377
   1425.03867       0.4304       0.7242    1425.03867       0.4303       0.7245
   1425.02341       0.5070       0.6490    1425.02341       0.5070       0.6493
   1425.00815       0.4261       0.6050    1425.00815       0.4260       0.6053
   1424.99290       0.4301       0.6561    1424.99290       0.4300       0.6564
   1424.97764       0.4385       0.6922    1424.97764       0.4385       0.6925
   1424.96238       0.4237       0.8391    1424.96238       0.4236       0.8395
   1424.94712       0.4866       0.6160    1424.94712       0.4865       0.6163
   1424.93186       0.4554       0.6530    1424.93186       0.4554       0.6533
   1424.91660       0.4223       0.7319    1424.91660       0.4223       0.7322
   1424.90134       0.4478       0.7095    1424.90134       0.4477       0.7098
   1424.88608       0.4530       0.6986    1424.88608       0.4529       0.6989
   1424.87083       0.4726       0.6431    1424.87083       0.4725       0.6434
   1424.85557       0.4278       0.6678    1424.85557       0.4278       0.6681
   1424.84031       0.3797       0.7526    1424.84031       0.3797       0.7529
   1424.82505       0.3995       0.7159    1424.82505       0.3995       0.7162
   1424.80979       0.4018       0.6058    1424.80979       0.4017       0.6061
   1424.79453       0.4329       0.6737    1424.79453       0.4329       0.6740
   1424.77927       0.4257       0.7130    1424.77927       0.4257       0.7133
   1424.76401       0.4904       0.6754    1424.76401       0.4903       0.6757
   1424.74875       0.4458       0.7828    1424.74875       0.4458       0.7831
   1424.73350       0.3826       0.7508    1424.73350       0.3826       0.7511
   1424.71824       0.3680       0.8249    1424.71824       0.3679       0.8253
   1424.70298       0.4114       0.8237    1424.70298       0.4114       0.8241
   1424.68772       0.4158       0.7872    1424.68772       0.4158       0.7875
   1424.67246       0.3826       0.6943    1424.67246       0.3826       0.6946
   1424.65720       0.4085       0.6791    1424.65720       0.4085       0.6794
   1424.64194       0.3721       0.7031    1424.64194       0.3720       0.7035
   1424.62668       0.3532       0.7688    1424.62668       0.3532       0.7691
   1424.61143       0.3415       0.8191    1424.61143       0.3415       0.8195
   1424.59617       0.3164       0.7150    1424.59617       0.3163       0.7153
   1424.58091       0.3235       0.7084    1424.58091       0.3235       0.7087
   1424.56565       0.2952       0.7184    1424.56565       0.2951       0.7187
   1424.55039       0.3275       0.8108    1424.55039       0.3274       0.8112
   1424.53513       0.3819       0.8264    1424.53513       0.3818       0.8268
   1424.51987       0.3200       0.7377    1424.51987       0.3200       0.7381
   1424.50461       0.3633       0.7148    1424.50461       0.3633       0.7151
   1424.48936       0.3075       0.7918    1424.48936       0.3074       0.7921
   1424.47410       0.2954       0.7407    1424.47410       0.2953       0.7410
   1424.45884       0.2894       0.8131    1424.45884       0.2894       0.8135
   1424.44358       0.3497       0.8107    1424.44358       0.3497       0.8110
   1424.42832       0.2995       0.7380    1424.42832       0.2995       0.7383
   1424.41306       0.3134       0.7830    1424.41306       0.3134       0.7833
   1424.39780       0.3128       0.8107    1424.39780       0.3128       0.8110
   1424.38254       0.3014       0.8326    1424.38254       0.3014       0.8329
   1424.36729       0.3385       0.7752    1424.36729       0.3385       0.7756
   1424.35203       0.3369       0.7819    1424.35203       0.3368       0.7822
   1424.33677       0.3272       0.8065    1424.33677       0.3271       0.8068
   1424.32151       0.3436       0.9257    1424.32151       0.3436       0.9261
   1424.30625       0.3352       0.8854    1424.30625       0.3352       0.8858
   1424.29099       0.3033       0.8596    1424.29099       0.3033       0.8600
   1424.27573       0.2812       0.8568    1424.27573       0.2811       0.8571
   1424.26047       0.3066       0.8478    1424.26047       0.3066       0.8482
   1424.24521       0.3088       0.7775    1424.24521       0.3088       0.7778
   1424.22996       0.2323       0.8185    1424.22996       0.2323       0.8189
   1424.21470       0.2801       0.8484    1424.21470       0.2801       0.8487
   1424.19944       0.2509       0.8309    1424.19944       0.2509       0.8313
   1424.18418       0.3091       0.7729    1424.18418       0.3091       0.7733
   1424.16892       0.3203       0.7895    1424.16892       0.3202       0.7899
   1424.15366       0.2504       0.7882    1424.15366       0.2504       0.7885
   1424.13840       0.2588       0.8954    1424.13840       0.2588       0.8958
   1424.12314       0.2878       0.9213    1424.12314       0.2878       0.9217
   1424.10789       0.2549       0.9109    1424.10789       0.2549       0.9113
   1424.09263       0.2371       0.8464    1424.09263       0.2371       0.8467
   1424.07737       0.2176       0.9440    1424.07737       0.2176       0.9444
   1424.06211       0.2542       0.9520    1424.06211       0.2542       0.9525
   1424.04685       0.2310       0.8379    1424.04685       0.2309       0.8382
   1424.03159       0.1363       0.8715    1424.03159       0.1363       0.8719
   1424.01633       0.2956       0.9150    1424.01633       0.2956       0.9154
   1424.00107       0.2213       0.8822    1424.00107       0.2213       0.8826
   1423.98582       0.2251       0.8405    1423.98582       0.2250       0.8409
   1423.97056       0.1982       0.8909    1423.97056       0.1982       0.8913
   1423.95530       0.2069       0.9593    1423.95530       0.2069       0.9597
   1423.94004       0.1605       0.9506    1423.94004       0.1605       0.9510
   1423.92478       0.1940       0.9321    1423.92478       0.1939       0.9325
   1423.90952       0.1832       0.9058    1423.90952       0.1832       0.9062
   1423.89426       0.2285       0.9333    1423.89426       0.2285       0.9337
   1423.87900       0.2024       0.9117    1423.87900       0.2023       0.9121
   1423.86375       0.1591       0.8951    1423.86375       0.1590       0.8955
   1423.84849       0.1531       0.8783    1423.84849       0.1531       0.8787
   1423.83323       0.1276       0.9020    1423.83323       0.1276       0.9024
   1423.81797       0.1920       0.9686    1423.81797       0.1920       0.9690
   1423.80271       0.1295       0.8930    1423.80271       0.1295       0.8934
   1423.78745       0.1592       0.9294    1423.78745       0.1592       0.9298
   1423.77219       0.1929       0.8495    1423.77219       0.1929       0.8499
   1423.75693       0.0872       0.8627    1423.75693       0.0872       0.8631
   1423.74167       0.1903       0.9063    1423.74167       0.1903       0.9067
   1423.72642       0.1777       0.9989    1423.72642       0.1777       0.9993
   1423.71116       0.1969       0.9373    1423.71116       0.1969       0.9377
   1423.69590       0.1367       0.9955    1423.69590       0.1367       0.9959
   1423.68064       0.1300       0.9731    1423.68064       0.1300       0.9735
   1423.66538       0.1529       0.9193    1423.66538       0.1529       0.9197
   1423.65012       0.1237       0.8846    1423.65012       0.1237       0.8850
   1423.63486       0.0981       0.9802    1423.63486       0.0981       0.9806
   1423.61960       0.0962       0.9642    1423.61960       0.0962       0.9647
   1423.60435       0.1497       0.9897    1423.60435       0.1497       0.9902
   1423.58909       0.1798       0.9790    1423.58909       0.1798       0.9794
   1423.57383       0.1431       1.0048    1423.57383       0.1431       1.0053
   1423.55857       0.1585       1.0129    1423.55857       0.1585       1.0133
   1423.54331       0.1136       0.9511    1423.54331       0.1136       0.9515
   1423.52805       0.1216       0.9590    1423.52805       0.1216       0.9594
   1423.51279       0.1230       0.9925    1423.51279       0.1229       0.9929
   1423.49753       0.1454       0.9906    1423.49753       0.1454       0.9910
   1423.48228       0.1346       0.9892    1423.48228       0.1346       0.9896
   1423.46702       0.0344       0.9883    1423.46702       0.0344       0.9887
   1423.45176       0.0508       0.9814    1423.45176       0.0508       0.9818
   1423.43650       0.1010       1.0290    1423.43650       0.1010       1.0294
   1423.42124       0.0846       0.9952    1423.42124       0.0846       0.9956
   1423.40598       0.1510       1.0186    1423.40598       0.1510       1.0191
   1423.39072       0.0715       1.0053    1423.39072       0.0715       1.0057
   1423.37546       0.0774       1.0622    1423.37546       0.0774       1.0627
   1423.36021       0.1009       1.0136    1423.36021       0.1008       1.0140
   1423.34495       0.0863       1.0354    1423.34495       0.0863       1.0359
   1423.32969       0.0816       0.9884    1423.32969       0.0816       0.9889
   1423.31443       0.1313       0.9717    1423.31443       0.1313       0.9722
   1423.29917       0.1032       1.0488    1423.29917       0.1032       1.0493
   1423.28391      -0.0123       1.0633    1423.28391      -0.0123       1.0638
   1423.26865       0.0181       1.0250    1423.26865       0.0181       1.0255
   1423.25339       0.0597       0.9780    1423.25339       0.0597       0.9784
   1423.23813       0.0792       1.0038    1423.23813       0.0792       1.0042
   1423.22288       0.0071       0.9914    1423.22288       0.0071       0.9918
   1423.20762       0.0516       1.1207    1423.20762       0.0516       1.1212
   1423.19236       0.0311       1.1227    1423.19236       0.0311       1.1231
   1423.17710       0.0005       1.0056    1423.17710       0.0005       1.0060
   1423.16184       0.0375       1.0442    1423.16184       0.0375       1.0446
   1423.14658       0.0629       1.0591    1423.14658       0.0629       1.0596
   1423.13132       0.0809       1.0586    1423.13132       0.0809       1.0591
   1423.11606       0.1104       1.0452    1423.11606       0.1104       1.0456
   1423.10081       0.0324       1.0923    1423.10081       0.0324       1.0928
   1423.08555       0.0133       1.0594    1423.08555       0.0133       1.0598
   1423.07029       0.0532       1.1006    1423.07029       0.0532       1.1011
   1423.05503       0.0824       1.0844    1423.05503       0.0824       1.0848
   1423.03977       0.0990       1.1163    1423.03977       0.0990       1.1168
   1423.02451       0.0752       1.0781    1423.02451       0.0752       1.0786
   1423.00925       0.1291       1.1235    1423.00925       0.1291       1.1240
   1422.99399       0.0591       1.1114    1422.99399       0.0591       1.1119
   1422.97874       0.1145       1.1098    1422.97874       0.1145       1.1102
   1422.96348       0.1228       1.1529    1422.96348       0.1228       1.1534
   1422.94822       0.1986       1.2636    1422.94822       0.1985       1.2641
   1422.93296       0.1740       1.2827    1422.93296       0.1740       1.2833
   1422.91770       0.2770       1.4080    1422.91770       0.2770       1.4086
   1422.90244       0.4117       1.5201    1422.90244       0.4116       1.5208
   1422.88718       0.5234       1.5707    1422.88718       0.5234       1.5713
   1422.87192       0.7427       1.9710    1422.87192       0.7426       1.9718
   1422.85667       1.0944       2.3537    1422.85667       1.0942       2.3548
   1422.84141       1.4315       2.7950    1422.84141       1.4314       2.7962
   1422.82615       1.8690       3.2359    1422.82615       1.8689       3.2373
   1422.81089       2.1203       3.5936    1422.81089       2.1201       3.5952
   1422.79563       2.1861       3.7932    1422.79563       2.1859       3.7949
   1422.78037       2.0470       3.6258    1422.78037       2.0468       3.6274
   1422.76511       1.8356       3.1382    1422.76511       1.8354       3.1396
   1422.74985       1.4830       2.8515    1422.74985       1.4828       2.8527
   1422.73459       1.1735       2.5521    1422.73459       1.1734       2.5532
   1422.71934       0.9362       2.1640    1422.71934       0.9361       2.1650
   1422.70408       0.7525       1.9446    1422.70408       0.7525       1.9454
   1422.68882       0.6686       1.8765    1422.68882       0.6686       1.8774
   1422.67356       0.5568       1.7569    1422.67356       0.5568       1.7577
   1422.65830       0.4111       1.5947    1422.65830       0.4110       1.5954
   1422.64304       0.3101       1.5131    1422.64304       0.3101       1.5137
   1422.62778       0.2445       1.3875    1422.62778       0.2445       1.3881
   1422.61252       0.2924       1.3750    1422.61252       0.2924       1.3756
   1422.59727       0.1747       1.2857    1422.59727       0.1747       1.2863
   1422.58201       0.1230       1.2022    1422.58201       0.1230       1.2027
   1422.56675       0.0594       1.1633    1422.56675       0.0594       1.1638
   1422.55149      -0.0098       1.1465    1422.55149      -0.0098       1.1470
   1422.53623       0.1345       1.1709    1422.53623       0.1345       1.1714
   1422.52097       0.1196       1.1704    1422.52097       0.1195       1.1709
   1422.50571       0.0140       1.1270    1422.50571       0.0140       1.1275
   1422.49045       0.0523       1.1787    1422.49045       0.0523       1.1793
   1422.47520       0.0428       1.1261    1422.47520       0.0428       1.1266
   1422.45994       0.0991       1.1295    1422.45994       0.0991       1.1300
   1422.44468       0.0001       1.1598    1422.44468       0.0001       1.1603
   1422.42942      -0.0109       1.0649    1422.42942      -0.0109       1.0653
   1422.41416       0.0924       1.0964    1422.41416       0.0924       1.0969
   1422.39890       0.0401       1.0558    1422.39890       0.0401       1.0563
   1422.38364      -0.0116       1.1396    1422.38364      -0.0116       1.1401
   1422.36838       0.0439       1.0473    1422.36838       0.0438       1.0478
   1422.35312       0.0289       1.0395    1422.35312       0.0289       1.0399
   1422.33787      -0.0017       1.0606    1422.33787      -0.0017       1.0611
   1422.32261       0.0687       1.1051    1422.32261       0.0687       1.1056
   1422.30735       0.0742       1.0453    1422.30735       0.0742       1.0458
   1422.29209      -0.0026       1.0731    1422.29209      -0.0026       1.0735
   1422.27683       0.0486       1.0976    1422.27683       0.0486       1.0981
   1422.26157       0.0944       1.0820    1422.26157       0.0944       1.0825
   1422.24631      -0.0041       1.0257    1422.24631      -0.0041       1.0262
   1422.23105       0.0040       0.9998    1422.23105       0.0040       1.0003
   1422.21580       0.1203       1.1203    1422.21580       0.1203       1.1208
   1422.20054       0.0139       1.0616    1422.20054       0.0139       1.0620
   1422.18528       0.0657       1.0528    1422.18528       0.0657       1.0533
   1422.17002      -0.0280       1.0571    1422.17002      -0.0280       1.0575
   1422.15476       0.0383       1.0293    1422.15476       0.0383       1.0298
   1422.13950       0.0518       1.0532    1422.13950       0.0518       1.0536
   1422.12424       0.0951       0.9821    1422.12424       0.0951       0.9825
   1422.10898       0.0472       1.0811    1422.10898       0.0472       1.0816
   1422.09373       0.0007       1.0665    1422.09373       0.0007       1.0670
   1422.07847       0.0444       1.0759    1422.07847       0.0444       1.0763
   1422.06321       0.0713       1.0793    1422.06321       0.0713       1.0798
   1422.04795       0.0787       1.0175    1422.04795       0.0787       1.0180
   1422.03269       0.1030       1.0142    1422.03269       0.1030       1.0146
   1422.01743       0.0144       1.0887    1422.01743       0.0144       1.0892
   1422.00217      -0.0277       1.0544    1422.00217      -0.0277       1.0548
   1421.98691       0.0690       1.0754    1421.98691       0.0690       1.0759
   1421.97166       0.0352       1.0266    1421.97166       0.0352       1.0271
   1421.95640       0.0900       1.0442    1421.95640       0.0900       1.0446
   1421.94114       0.0281       1.0445    1421.94114       0.0281       1.0449
   1421.92588       0.0960       1.0397    1421.92588       0.0960       1.0402
   1421.91062       0.0550       1.0140    1421.91062       0.0550       1.0144
   1421.89536       0.0946       1.0215    1421.89536       0.0946       1.0219
   1421.88010       0.0111       0.9813    1421.88010       0.0111       0.9817
   1421.86484       0.0213       1.0363    1421.86484       0.0213       1.0367
   1421.84958       0.0794       1.0454    1421.84958       0.0794       1.0459
   1421.83433       0.0586       1.0319    1421.83433       0.0586       1.0324
   1421.81907      -0.0277       0.9942    1421.81907      -0.0277       0.9947
   1421.80381       0.0869       1.0400    1421.80381       0.0869       1.0405
   1421.78855       0.0174       1.0157    1421.78855       0.0174       1.0161
   1421.77329      -0.0337       0.9924    1421.77329      -0.0337       0.9928
   1421.75803       0.0496       1.0120    1421.75803       0.0496       1.0125
   1421.74277       0.1219       1.0547    1421.74277       0.1219       1.0552
   1421.72751       0.0166       1.0249    1421.72751       0.0166       1.0253
   1421.71226       0.0822       1.0043    1421.71226       0.0822       1.0047
   1421.69700       0.0718       1.0044    1421.69700       0.0718       1.0049
   1421.68174       0.0525       1.0380    1421.68174       0.0525       1.0384
   1421.66648       0.0670       1.0535    1421.66648       0.0670       1.0540
   1421.65122       0.0506       1.0344    1421.65122       0.0506       1.0348
   1421.63596       0.0898       0.9825    1421.63596       0.0897       0.9830
   1421.62070       0.0094       1.0234    1421.62070       0.0094       1.0239
   1421.60544       0.0219       1.0297    1421.60544       0.0219       1.0302
   1421.59019       0.0785       0.9760    1421.59019       0.0785       0.9764
   1421.57493       0.0757       1.0199    1421.57493       0.0757       1.0203
   1421.55967       0.0776       1.0192    1421.55967       0.0776       1.0196
   1421.54441       0.0713       0.9356    1421.54441       0.0713       0.9360
   1421.52915       0.0835       0.9952    1421.52915       0.0835       0.9956
   1421.51389       0.0627       0.9545    1421.51389       0.0627       0.9549
   1421.49863       0.0266       1.0518    1421.49863       0.0266       1.0522
   1421.48337       0.0887       1.0600    1421.48337       0.0887       1.0605
   1421.46812       0.0147       1.0474    1421.46812       0.0147       1.0479
   1421.45286       0.0955       0.9365    1421.45286       0.0955       0.9369
   1421.43760       0.0278       1.0406    1421.43760       0.0278       1.0410
   1421.42234       0.0580       0.9067    1421.42234       0.0580       0.9071
   1421.40708       0.0539       0.9111    1421.40708       0.0539       0.9115
   1421.39182       0.0864       0.8784    1421.39182       0.0864       0.8788
   1421.37656       0.0509       0.9158    1421.37656       0.0509       0.9162
   1421.36130       0.0753       1.0351    1421.36130       0.0753       1.0356
   1421.34604       0.0606       0.9865    1421.34604       0.0606       0.9869
   1421.33079       0.0008       0.9813    1421.33079       0.0008       0.9818
   1421.31553       0.0793       1.0181    1421.31553       0.0793       1.0186
   1421.30027       0.0522       0.9878    1421.30027       0.0522       0.9882
   1421.28501       0.0161       0.8778    1421.28501       0.0161       0.8781
   1421.26975       0.0319       1.0259    1421.26975       0.0319       1.0263
   1421.25449       0.0965       0.8755    1421.25449       0.0965       0.8759
   1421.23923       0.0771       1.0229    1421.23923       0.0771       1.0233
   1421.22397       0.0900       0.9650    1421.22397       0.0900       0.9654
   1421.20872       0.0532       1.0051    1421.20872       0.0532       1.0055
   1421.19346       0.0453       0.8692    1421.19346       0.0453       0.8696
   1421.17820       0.1062       0.9987    1421.17820       0.1062       0.9992
   1421.16294       0.1621       0.9814    1421.16294       0.1620       0.9818
   1421.14768       0.0461       0.9118    1421.14768       0.0461       0.9122
   1421.13242       0.0899       0.9241    1421.13242       0.0899       0.9245
   1421.11716       0.0924       0.9543    1421.11716       0.0924       0.9547
   1421.10190       0.1416       0.9389    1421.10190       0.1416       0.9393
   1421.08665       0.0461       0.9387    1421.08665       0.0461       0.9391
   1421.07139       0.0485       0.9774    1421.07139       0.0485       0.9778
   1421.05613       0.0591       0.9001    1421.05613       0.0591       0.9005
   1421.04087       0.0410       0.9542    1421.04087       0.0410       0.9546
   1421.02561       0.1007       0.9271    1421.02561       0.1007       0.9275
   1421.01035       0.0962       0.9177    1421.01035       0.0962       0.9181
   1420.99509       0.1324       0.8717    1420.99509       0.1324       0.8721
   1420.97983       0.1186       0.8639    1420.97983       0.1186       0.8643
   1420.96458       0.0883       0.9001    1420.96458       0.0883       0.9005
   1420.94932       0.1028       0.8973    1420.94932       0.1028       0.8977
   1420.93406       0.1221       0.9536    1420.93406       0.1221       0.9540
   1420.91880       0.1105       0.8935    1420.91880       0.1105       0.8939
   1420.90354       0.1478       0.8986    1420.90354       0.1478       0.8990
   1420.88828       0.1632       0.8277    1420.88828       0.1632       0.8280
   1420.87302       0.1376       0.8538    1420.87302       0.1375       0.8542
   1420.85776       0.1856       0.8971    1420.85776       0.1856       0.8975
   1420.84250       0.1280       0.9064    1420.84250       0.1280       0.9068
   1420.82725       0.1965       0.8603    1420.82725       0.1965       0.8607
   1420.81199       0.1690       0.8899    1420.81199       0.1689       0.8903
   1420.79673       0.1606       0.8530    1420.79673       0.1605       0.8534
   1420.78147       0.1855       0.7866    1420.78147       0.1855       0.7869
   1420.76621       0.1868       0.9278    1420.76621       0.1868       0.9282
   1420.75095       0.1530       0.9376    1420.75095       0.1530       0.9380
   1420.73569       0.1951       0.9154    1420.73569       0.1951       0.9158
   1420.72043       0.2218       0.9190    1420.72043       0.2217       0.9194
   1420.70518       0.1865       0.9327    1420.70518       0.1865       0.9331
   1420.68992       0.2111       0.9821    1420.68992       0.2111       0.9826
   1420.67466       0.2282       0.9465    1420.67466       0.2282       0.9469
   1420.65940       0.3666       1.0751    1420.65940       0.3666       1.0755
   1420.64414       0.5015       1.2844    1420.64414       0.5014       1.2850
   1420.62888       0.6405       1.5572    1420.62888       0.6405       1.5579
   1420.61362       0.7760       1.7093    1420.61362       0.7759       1.7101
   1420.59836       0.8793       1.6334    1420.59836       0.8792       1.6341
   1420.58311       0.6921       1.5030    1420.58311       0.6920       1.5036
   1420.56785       0.6205       1.3367    1420.56785       0.6205       1.3373
   1420.55259       0.3320       1.1934    1420.55259       0.3320       1.1939
   1420.53733       0.1537       0.7921    1420.53733       0.1537       0.7925
   1420.52207      -0.0927       0.4823    1420.52207      -0.0927       0.4825
   1420.50681      -0.3986       0.0918    1420.50681      -0.3985       0.0919
   1420.49155      -0.6367      -0.2701    1420.49155      -0.6366      -0.2702
   1420.47629      -0.6370      -0.3032    1420.47629      -0.6369      -0.3034
   1420.46104      -0.4789       0.0149    1420.46104      -0.4789       0.0149
   1420.44578      -0.2193       0.2793    1420.44578      -0.2192       0.2794
   1420.43052      -1.2389      -1.1042    1420.43052      -1.2388      -1.1047
   1420.41526      -1.5040      -1.4420    1420.41526      -1.5039      -1.4426
   1420.40000      -3.3320      -3.7669    1420.40000      -3.3316      -3.7685
   1420.38474      -2.5133      -2.4416    1420.38474      -2.5131      -2.4426
   1420.36948       0.0324       0.8107    1420.36948       0.0324       0.8110
   1420.35422       2.3973       3.9903    1420.35422       2.3970       3.9920
   1420.33896       0.3809       0.9588    1420.33896       0.3809       0.9592
   1420.32371       0.0208       0.3483    1420.32371       0.0208       0.3485
   1420.30845       0.3673       0.8545    1420.30845       0.3673       0.8549
   1420.29319       0.3607       0.9283    1420.29319       0.3606       0.9287
   1420.27793       0.3709       0.7934    1420.27793       0.3709       0.7938
   1420.26267       0.2278       0.8335    1420.26267       0.2278       0.8338
   1420.24741       0.3445       0.7555    1420.24741       0.3444       0.7558
   1420.23215       0.2910       0.7910    1420.23215       0.2909       0.7914
   1420.21689       0.1999       0.7995    1420.21689       0.1999       0.7998
   1420.20164       0.3463       0.7825    1420.20164       0.3463       0.7828
   1420.18638       0.2723       0.7401    1420.18638       0.2723       0.7404
   1420.17112       0.2435       0.7595    1420.17112       0.2434       0.7598
   1420.15586       0.2710       0.8465    1420.15586       0.2710       0.8469
   1420.14060       0.2548       0.8220    1420.14060       0.2548       0.8223
   1420.12534       0.3151       0.7951    1420.12534       0.3151       0.7955
   1420.11008       0.3178       0.7797    1420.11008       0.3177       0.7800
   1420.09482       0.3261       0.8134    1420.09482       0.3261       0.8137
   1420.07957       0.3334       0.7613    1420.07957       0.3334       0.7616
   1420.06431       0.3184       0.7729    1420.06431       0.3184       0.7733
   1420.04905       0.3376       0.7504    1420.04905       0.3376       0.7507
   1420.03379       0.2883       0.7561    1420.03379       0.2882       0.7565
   1420.01853       0.3546       0.7749    1420.01853       0.3546       0.7752
   1420.00327       0.3138       0.6770    1420.00327       0.3138       0.6773
   1419.98801       0.3038       0.7523    1419.98801       0.3038       0.7526
   1419.97275       0.2817       0.7449    1419.97275       0.2817       0.7453
   1419.95750       0.3288       0.6974    1419.95750       0.3288       0.6977
   1419.94224       0.3472       0.7654    1419.94224       0.3472       0.7658
   1419.92698       0.3393       0.7742    1419.92698       0.3393       0.7746
   1419.91172       0.3482       0.6967    1419.91172       0.3482       0.6970
   1419.89646       0.3982       0.7639    1419.89646       0.3982       0.7643
   1419.88120       0.3795       0.6131    1419.88120       0.3795       0.6134
   1419.86594       0.3842       0.6504    1419.86594       0.3841       0.6507
   1419.85068       0.4387       0.6934    1419.85068       0.4386       0.6937
   1419.83542       0.3891       0.6922    1419.83542       0.3890       0.6925
   1419.82017       0.3528       0.7239    1419.82017       0.3528       0.7242
   1419.80491       0.4585       0.7135    1419.80491       0.4585       0.7138
   1419.78965       0.4197       0.6893    1419.78965       0.4196       0.6896
   1419.77439       0.4091       0.6804    1419.77439       0.4090       0.6807
   1419.75913       0.3332       0.7118    1419.75913       0.3332       0.7121
   1419.74387       0.3012       0.6672    1419.74387       0.3011       0.6675
   1419.72861       0.3696       0.7158    1419.72861       0.3696       0.7161
   1419.71335       0.3393       0.6837    1419.71335       0.3392       0.6840
   1419.69810       0.4204       0.7096    1419.69810       0.4204       0.7099
   1419.68284       0.4142       0.6174    1419.68284       0.4141       0.6177
   1419.66758       0.4230       0.7059    1419.66758       0.4230       0.7062
   1419.65232       0.4071       0.7033    1419.65232       0.4071       0.7036
   1419.63706       0.3214       0.6616    1419.63706       0.3214       0.6619
   1419.62180       0.4249       0.7599    1419.62180       0.4248       0.7603
   1419.60654       0.3739       0.7740    1419.60654       0.3738       0.7743
   1419.59128       0.4026       0.7933    1419.59128       0.4026       0.7936
   1419.57603       0.3292       0.6919    1419.57603       0.3291       0.6922
   1419.56077       0.3344       0.7878    1419.56077       0.3343       0.7881
   1419.54551       0.3729       0.7259    1419.54551       0.3729       0.7262
   1419.53025       0.4410       0.6727    1419.53025       0.4409       0.6730
   1419.51499       0.3875       0.6473    1419.51499       0.3875       0.6475
   1419.49973       0.4110       0.7321    1419.49973       0.4109       0.7324
   1419.48447       0.4377       0.6535    1419.48447       0.4377       0.6538
   1419.46921       0.4651       0.6970    1419.46921       0.4651       0.6973
   1419.45396       0.3775       0.6528    1419.45396       0.3774       0.6531
   1419.43870       0.4141       0.6334    1419.43870       0.4140       0.6336
   1419.42344       0.4257       0.7330    1419.42344       0.4257       0.7333
   1419.40818       0.4421       0.5965    1419.40818       0.4420       0.5968
   1419.39292       0.4372       0.6340    1419.39292       0.4372       0.6342
   1419.37766       0.4704       0.7302    1419.37766       0.4704       0.7305
   1419.36240       0.4210       0.6694    1419.36240       0.4209       0.6697
   1419.34714       0.4260       0.6374    1419.34714       0.4260       0.6377
   1419.33188       0.5104       0.6729    1419.33188       0.5103       0.6732
   1419.31663       0.4459       0.6226    1419.31663       0.4459       0.6229
   1419.30137       0.4223       0.6558    1419.30137       0.4223       0.6561
   1419.28611       0.5026       0.6520    1419.28611       0.5025       0.6523
   1419.27085       0.4301       0.7185    1419.27085       0.4301       0.7188
   1419.25559       0.4931       0.6470    1419.25559       0.4930       0.6473
   1419.24033       0.4591       0.6681    1419.24033       0.4590       0.6684
   1419.22507       0.4597       0.5902    1419.22507       0.4596       0.5904
   1419.20981       0.4175       0.6532    1419.20981       0.4175       0.6535
   1419.19456       0.4502       0.6889    1419.19456       0.4502       0.6892
   1419.17930       0.4536       0.7198    1419.17930       0.4536       0.7201
   1419.16404       0.4828       0.6681    1419.16404       0.4827       0.6684
   1419.14878       0.4452       0.7103    1419.14878       0.4451       0.7106
   1419.13352       0.4141       0.7342    1419.13352       0.4141       0.7345
   1419.11826       0.4534       0.6556    1419.11826       0.4533       0.6558
   1419.10300       0.4730       0.6519    1419.10300       0.4729       0.6522
   1419.08774       0.4510       0.6932    1419.08774       0.4510       0.6935
   1419.07249       0.5025       0.6100    1419.07249       0.5025       0.6103
   1419.05723       0.5229       0.6310    1419.05723       0.5228       0.6313
   1419.04197       0.4355       0.7345    1419.04197       0.4354       0.7348
   1419.02671       0.5131       0.6904    1419.02671       0.5130       0.6907
   1419.01145       0.5028       0.7377    1419.01145       0.5028       0.7380
   1418.99619       0.4646       0.6868    1418.99619       0.4645       0.6871
   1418.98093       0.4813       0.7245    1418.98093       0.4812       0.7248
   1418.96567       0.5614       0.6407    1418.96567       0.5613       0.6409
   1418.95042       0.5733       0.6961    1418.95042       0.5732       0.6964
   1418.93516       0.5362       0.7213    1418.93516       0.5361       0.7216
   1418.91990       0.4958       0.7857    1418.91990       0.4957       0.7860
   1418.90464       0.5126       0.6721    1418.90464       0.5125       0.6724
   1418.88938       0.5732       0.6957    1418.88938       0.5732       0.6960
   1418.87412       0.5068       0.6937    1418.87412       0.5068       0.6940
   1418.85886       0.5051       0.6126    1418.85886       0.5050       0.6128
   1418.84360       0.5433       0.6625    1418.84360       0.5433       0.6628
   1418.82834       0.5113       0.6148    1418.82834       0.5112       0.6151
   1418.81309       0.5062       0.6293    1418.81309       0.5061       0.6296
   1418.79783       0.5140       0.7238    1418.79783       0.5139       0.7241
   1418.78257       0.5618       0.7054    1418.78257       0.5618       0.7057
   1418.76731       0.5077       0.6982    1418.76731       0.5076       0.6985
   1418.75205       0.5063       0.7013    1418.75205       0.5062       0.7016
   1418.73679       0.4917       0.6853    1418.73679       0.4916       0.6856
   1418.72153       0.5544       0.7155    1418.72153       0.5543       0.7158
   1418.70627       0.5440       0.6735    1418.70627       0.5439       0.6738
   1418.69102       0.5004       0.6894    1418.69102       0.5003       0.6897
   1418.67576       0.5182       0.7632    1418.67576       0.5182       0.7635
   1418.66050       0.5242       0.6981    1418.66050       0.5242       0.6984
   1418.64524       0.5730       0.6450    1418.64524       0.5729       0.6453
   1418.62998       0.5275       0.7172    1418.62998       0.5274       0.7175
   1418.61472       0.5361       0.7131    1418.61472       0.5361       0.7134
   1418.59946       0.5390       0.7072    1418.59946       0.5389       0.7075
   1418.58420       0.5633       0.7527    1418.58420       0.5632       0.7530
   1418.56895       0.6115       0.7222    1418.56895       0.6114       0.7226
   1418.55369       0.5993       0.6869    1418.55369       0.5992       0.6872
   1418.53843       0.5632       0.7580    1418.53843       0.5631       0.7584
   1418.52317       0.5758       0.6757    1418.52317       0.5757       0.6760
   1418.50791       0.5970       0.7139    1418.50791       0.5969       0.7142
   1418.49265       0.5516       0.6868    1418.49265       0.5515       0.6871
   1418.47739       0.6018       0.7215    1418.47739       0.6018       0.7218
   1418.46213       0.6289       0.7258    1418.46213       0.6288       0.7261
   1418.44687       0.5901       0.6877    1418.44687       0.5900       0.6880
   1418.43162       0.6294       0.7316    1418.43162       0.6294       0.7320
   1418.41636       0.5977       0.6792    1418.41636       0.5977       0.6795
   1418.40110       0.5391       0.6694    1418.40110       0.5391       0.6697
   1418.38584       0.6091       0.6731    1418.38584       0.6090       0.6734
   1418.37058       0.5330       0.6628    1418.37058       0.5329       0.6631
   1418.35532       0.5058       0.6451    1418.35532       0.5057       0.6454
   1418.34006       0.5490       0.7093    1418.34006       0.5489       0.7096
   1418.32480       0.6271       0.7144    1418.32480       0.6270       0.7147
   1418.30955       0.6203       0.7184    1418.30955       0.6202       0.7187
   1418.29429       0.6414       0.6084    1418.29429       0.6414       0.6087
   1418.27903       0.5764       0.7179    1418.27903       0.5763       0.7183
   1418.26377       0.5961       0.7496    1418.26377       0.5961       0.7499
   1418.24851       0.6072       0.7161    1418.24851       0.6071       0.7164
   1418.23325       0.6100       0.6341    1418.23325       0.6100       0.6343
   1418.21799       0.6387       0.7477    1418.21799       0.6386       0.7480
   1418.20273       0.6531       0.6847    1418.20273       0.6531       0.6850
   1418.18748       0.5698       0.6952    1418.18748       0.5698       0.6955
   1418.17222       0.5966       0.6517    1418.17222       0.5966       0.6520
   1418.15696       0.6223       0.6676    1418.15696       0.6222       0.6679
   1418.14170       0.6650       0.6986    1418.14170       0.6649       0.6989
   1418.12644       0.6429       0.6975    1418.12644       0.6428       0.6978
   1418.11118       0.6568       0.6519    1418.11118       0.6568       0.6522
   1418.09592       0.6779       0.6712    1418.09592       0.6778       0.6715
   1418.08066       0.5934       0.6520    1418.08066       0.5933       0.6522
   1418.06541       0.6135       0.6990    1418.06541       0.6134       0.6993
   1418.05015       0.6408       0.6861    1418.05015       0.6408       0.6864
   1418.03489       0.6278       0.7060    1418.03489       0.6277       0.7063
   1418.01963       0.6708       0.6707    1418.01963       0.6707       0.6710
   1418.00437       0.6216       0.6798    1418.00437       0.6215       0.6801
   1417.98911       0.6577       0.6598    1417.98911       0.6576       0.6601
   1417.97385       0.6764       0.6908    1417.97385       0.6764       0.6911
   1417.95859       0.6523       0.6797    1417.95859       0.6522       0.6800
   1417.94333       0.6537       0.6817    1417.94333       0.6537       0.6820
   1417.92808       0.7056       0.6953    1417.92808       0.7055       0.6956
   1417.91282       0.6826       0.7616    1417.91282       0.6826       0.7619
   1417.89756       0.6803       0.6226    1417.89756       0.6802       0.6229
   1417.88230       0.6946       0.6955    1417.88230       0.6946       0.6958
   1417.86704       0.6978       0.6634    1417.86704       0.6977       0.6637
   1417.85178       0.6613       0.7242    1417.85178       0.6612       0.7245
   1417.83652       0.6301       0.7346    1417.83652       0.6300       0.7349
   1417.82126       0.6151       0.6703    1417.82126       0.6150       0.6706
   1417.80601       0.7004       0.5916    1417.80601       0.7003       0.5918
   1417.79075       0.6719       0.6678    1417.79075       0.6718       0.6681
   1417.77549       0.6690       0.7457    1417.77549       0.6689       0.7461
   1417.76023       0.6997       0.7631    1417.76023       0.6996       0.7635
   1417.74497       0.6937       0.6936    1417.74497       0.6937       0.6939
   1417.72971       0.6357       0.6805    1417.72971       0.6356       0.6808
   1417.71445       0.6851       0.6808    1417.71445       0.6850       0.6811
   1417.69919       0.7235       0.6057    1417.69919       0.7234       0.6059
   1417.68394       0.7363       0.7170    1417.68394       0.7363       0.7173
   1417.66868       0.7254       0.6661    1417.66868       0.7253       0.6663
   1417.65342       0.6640       0.6856    1417.65342       0.6639       0.6859
   1417.63816       0.6747       0.6393    1417.63816       0.6746       0.6395
   1417.62290       0.6898       0.6376    1417.62290       0.6897       0.6379
   1417.60764       0.7119       0.7076    1417.60764       0.7118       0.7079
   1417.59238       0.7113       0.7242    1417.59238       0.7113       0.7245
   1417.57712       0.6663       0.6728    1417.57712       0.6663       0.6730
   1417.56187       0.7968       0.6187    1417.56187       0.7967       0.6190
   1417.54661       0.8353       0.6431    1417.54661       0.8352       0.6433
   1417.53135       0.8003       0.6655    1417.53135       0.8003       0.6658
   1417.51609       0.6956       0.7560    1417.51609       0.6956       0.7563
   1417.50083       0.7095       0.6868    1417.50083       0.7094       0.6871
   1417.48557       0.6844       0.6843    1417.48557       0.6843       0.6846
   1417.47031       0.7431       0.6895    1417.47031       0.7430       0.6898
   1417.45505       0.7857       0.6811    1417.45505       0.7856       0.6814
   1417.43979       0.7060       0.6489    1417.43979       0.7059       0.6492
   1417.42454       0.6706       0.6834    1417.42454       0.6705       0.6837
   1417.40928       0.7269       0.6467    1417.40928       0.7268       0.6470
   1417.39402       0.7696       0.6869    1417.39402       0.7695       0.6872
   1417.37876       0.6835       0.7854    1417.37876       0.6834       0.7858
   1417.36350       0.7299       0.7039    1417.36350       0.7298       0.7042
   1417.34824       0.7508       0.5939    1417.34824       0.7507       0.5942
   1417.33298       0.7832       0.7508    1417.33298       0.7831       0.7511
   1417.31772       0.7763       0.7425    1417.31772       0.7763       0.7428
   1417.30247       0.7008       0.7104    1417.30247       0.7008       0.7107
   1417.28721       0.7360       0.5654    1417.28721       0.7360       0.5656
   1417.27195       0.7643       0.6333    1417.27195       0.7642       0.6336
   1417.25669       0.7387       0.6929    1417.25669       0.7386       0.6932
   1417.24143       0.8599       0.6883    1417.24143       0.8598       0.6886
   1417.22617       0.7626       0.6472    1417.22617       0.7625       0.6474
   1417.21091       0.7808       0.7534    1417.21091       0.7807       0.7537
   1417.19565       0.7579       0.7381    1417.19565       0.7578       0.7384
   1417.18040       0.7299       0.7978    1417.18040       0.7298       0.7981
   1417.16514       0.7288       0.7432    1417.16514       0.7288       0.7436
   1417.14988       0.7514       0.7068    1417.14988       0.7513       0.7071
   1417.13462       0.7917       0.6918    1417.13462       0.7917       0.6921
   1417.11936       0.7130       0.6504    1417.11936       0.7129       0.6507
   1417.10410       0.7814       0.6947    1417.10410       0.7813       0.6950
   1417.08884       0.8543       0.6993    1417.08884       0.8543       0.6996
   1417.07358       0.7727       0.6729    1417.07358       0.7726       0.6732
   1417.05833       0.7576       0.6819    1417.05833       0.7575       0.6822
   1417.04307       0.8029       0.6844    1417.04307       0.8028       0.6847
   1417.02781       0.7572       0.7612    1417.02781       0.7571       0.7616
   1417.01255       0.8249       0.7324    1417.01255       0.8248       0.7327
   1416.99729       0.7162       0.7545    1416.99729       0.7162       0.7549
   1416.98203       0.7925       0.6941    1416.98203       0.7924       0.6944
   1416.96677       0.7767       0.6818    1416.96677       0.7766       0.6821
   1416.95151       0.7303       0.6753    1416.95151       0.7303       0.6756
   1416.93625       0.7070       0.7447    1416.93625       0.7069       0.7450
   1416.92100       0.8089       0.6069    1416.92100       0.8088       0.6072
   1416.90574       0.7949       0.7094    1416.90574       0.7948       0.7097
   1416.89048       0.8670       0.7366    1416.89048       0.8669       0.7369
   1416.87522       0.7396       0.6834    1416.87522       0.7395       0.6837
   1416.85996       0.7281       0.6499    1416.85996       0.7280       0.6501
   1416.84470       0.7553       0.7017    1416.84470       0.7552       0.7021
   1416.82944       0.7816       0.6515    1416.82944       0.7815       0.6518
   1416.81418       0.7945       0.6031    1416.81418       0.7944       0.6034
   1416.79893       0.7691       0.7079    1416.79893       0.7690       0.7082
   1416.78367       0.7650       0.6717    1416.78367       0.7649       0.6719
   1416.76841       0.8040       0.6663    1416.76841       0.8039       0.6666
   1416.75315       0.7508       0.6554    1416.75315       0.7507       0.6557
   1416.73789       0.7674       0.6490    1416.73789       0.7674       0.6493
   1416.72263       0.7968       0.6245    1416.72263       0.7967       0.6248
   1416.70737       0.8121       0.7081    1416.70737       0.8120       0.7084
   1416.69211       0.7768       0.5838    1416.69211       0.7767       0.5841
   1416.67686       0.7875       0.6171    1416.67686       0.7874       0.6174
   1416.66160       0.8091       0.6046    1416.66160       0.8090       0.6049
   1416.64634       0.7860       0.6650    1416.64634       0.7859       0.6652
   1416.63108       0.8248       0.6837    1416.63108       0.8247       0.6840
   1416.61582       0.7887       0.6750    1416.61582       0.7886       0.6752
   1416.60056       0.8208       0.7380    1416.60056       0.8207       0.7383
   1416.58530       0.7985       0.6682    1416.58530       0.7984       0.6685
   1416.57004       0.7773       0.6202    1416.57004       0.7772       0.6205
   1416.55479       0.8058       0.6361    1416.55479       0.8057       0.6364
   1416.53953       0.8124       0.6098    1416.53953       0.8123       0.6101
   1416.52427       0.7503       0.5791    1416.52427       0.7503       0.5794
   1416.50901       0.8310       0.6517    1416.50901       0.8309       0.6520
   1416.49375       0.8151       0.6392    1416.49375       0.8150       0.6395
   1416.47849       0.8215       0.5700    1416.47849       0.8214       0.5702
   1416.46323       0.8046       0.5573    1416.46323       0.8046       0.5575
   1416.44797       0.8226       0.6080    1416.44797       0.8225       0.6083
   1416.43271       0.7502       0.6582    1416.43271       0.7501       0.6585
   1416.41746       0.8370       0.5917    1416.41746       0.8369       0.5919
   1416.40220       0.7770       0.6216    1416.40220       0.7769       0.6218
   1416.38694       0.7766       0.5481    1416.38694       0.7766       0.5483
   1416.37168       0.8764       0.7285    1416.37168       0.8763       0.7289
   1416.35642       0.7815       0.6327    1416.35642       0.7814       0.6330
   1416.34116       0.7852       0.6997    1416.34116       0.7852       0.7000
   1416.32590       0.8478       0.5953    1416.32590       0.8477       0.5956
   1416.31064       0.8384       0.5890    1416.31064       0.8383       0.5893
   1416.29539       0.8400       0.5700    1416.29539       0.8399       0.5702
   1416.28013       0.7713       0.5672    1416.28013       0.7713       0.5674
   1416.26487       0.7933       0.6058    1416.26487       0.7933       0.6061
   1416.24961       0.8487       0.6242    1416.24961       0.8486       0.6244
   1416.23435       0.7855       0.5742    1416.23435       0.7854       0.5744
   1416.21909       0.8096       0.5910    1416.21909       0.8095       0.5913
   1416.20383       0.7552       0.6036    1416.20383       0.7551       0.6038
   1416.18857       0.7911       0.5562    1416.18857       0.7910       0.5565
   1416.17332       0.8719       0.5808    1416.17332       0.8718       0.5811
   1416.15806       0.8169       0.6110    1416.15806       0.8168       0.6112
   1416.14280       0.8017       0.5873    1416.14280       0.8016       0.5876
   1416.12754       0.7838       0.5239    1416.12754       0.7837       0.5241
   1416.11228       0.8792       0.6390    1416.11228       0.8791       0.6393
   1416.09702       0.9005       0.5130    1416.09702       0.9004       0.5132
   1416.08176       0.8294       0.5395    1416.08176       0.8294       0.5398
   1416.06650       0.7628       0.5697    1416.06650       0.7627       0.5700
   1416.05125       0.8453       0.5689    1416.05125       0.8453       0.5692
   1416.03599       0.9281       0.5035    1416.03599       0.9280       0.5037
   1416.02073       0.9033       0.6373    1416.02073       0.9032       0.6375
   1416.00547       0.7999       0.5573    1416.00547       0.7998       0.5575
   1415.99021       0.8252       0.5763    1415.99021       0.8251       0.5765
   1415.97495       0.8788       0.5507    1415.97495       0.8787       0.5509
   1415.95969       0.9422       0.5750    1415.95969       0.9421       0.5753
   1415.94443       0.8410       0.5660    1415.94443       0.8409       0.5662
   1415.92917       0.7634       0.5980    1415.92917       0.7633       0.5982
   1415.91392       0.8028       0.6149    1415.91392       0.8028       0.6152
   1415.89866       0.8360       0.6127    1415.89866       0.8359       0.6129
   1415.88340       0.8912       0.5586    1415.88340       0.8911       0.5589
   1415.86814       0.9316       0.5725    1415.86814       0.9315       0.5728
   1415.85288       0.9382       0.6631    1415.85288       0.9381       0.6634
   1415.83762       0.9087       0.5254    1415.83762       0.9086       0.5256
   1415.82236       0.9126       0.5975    1415.82236       0.9125       0.5977
   1415.80710       0.9429       0.5776    1415.80710       0.9428       0.5779
   1415.79185       0.9086       0.5464    1415.79185       0.9085       0.5466
   1415.77659       0.8103       0.5773    1415.77659       0.8102       0.5775
   1415.76133       0.8365       0.5302    1415.76133       0.8364       0.5304
   1415.74607       0.8708       0.5669    1415.74607       0.8707       0.5671
   1415.73081       0.8847       0.4899    1415.73081       0.8846       0.4901
   1415.71555       0.8734       0.5497    1415.71555       0.8733       0.5500
   1415.70029       0.8775       0.5254    1415.70029       0.8774       0.5256
   1415.68503       0.8565       0.5230    1415.68503       0.8564       0.5232
   1415.66978       0.8755       0.6170    1415.66978       0.8754       0.6173
   1415.65452       0.8638       0.5508    1415.65452       0.8637       0.5511
   1415.63926       0.8872       0.4924    1415.63926       0.8871       0.4926
   1415.62400       0.9251       0.4932    1415.62400       0.9250       0.4934
   1415.60874       0.8913       0.4855    1415.60874       0.8912       0.4857
   1415.59348       0.8427       0.5086    1415.59348       0.8426       0.5088
   1415.57822       0.8825       0.4749    1415.57822       0.8824       0.4752
   1415.56296       0.9161       0.5327    1415.56296       0.9160       0.5329
   1415.54771       0.9333       0.4887    1415.54771       0.9332       0.4889
   1415.53245       0.8676       0.4995    1415.53245       0.8675       0.4997
   1415.51719       0.9416       0.5575    1415.51719       0.9415       0.5577
   1415.50193       0.9327       0.5151    1415.50193       0.9326       0.5153
   1415.48667       0.8938       0.5522    1415.48667       0.8937       0.5524
   1415.47141       0.9030       0.5222    1415.47141       0.9029       0.5224
   1415.45615       0.9226       0.5731    1415.45615       0.9225       0.5734
   1415.44089       0.9057       0.4463    1415.44089       0.9056       0.4465
   1415.42563       0.9380       0.4966    1415.42563       0.9379       0.4968
   1415.41038       0.8819       0.5420    1415.41038       0.8818       0.5423
   1415.39512       0.9634       0.5568    1415.39512       0.9633       0.5571
   1415.37986       0.9237       0.6145    1415.37986       0.9236       0.6148
   1415.36460       0.9674       0.4976    1415.36460       0.9673       0.4978
   1415.34934       0.9516       0.5176    1415.34934       0.9515       0.5178
   1415.33408       0.9519       0.4541    1415.33408       0.9518       0.4543
   1415.31882       0.9857       0.5396    1415.31882       0.9856       0.5398
   1415.30356       0.9681       0.5569    1415.30356       0.9680       0.5572
   1415.28831       0.9315       0.5008    1415.28831       0.9314       0.5011
   1415.27305       0.9149       0.5190    1415.27305       0.9148       0.5192
   1415.25779       0.9478       0.5059    1415.25779       0.9477       0.5061
   1415.24253       0.9084       0.5331    1415.24253       0.9083       0.5333
   1415.22727       0.9248       0.4920    1415.22727       0.9247       0.4922
   1415.21201       0.9451       0.4070    1415.21201       0.9450       0.4072
   1415.19675       0.9574       0.5276    1415.19675       0.9573       0.5278
   1415.18149       0.9129       0.5413    1415.18149       0.9128       0.5415
   1415.16624       0.9288       0.4824    1415.16624       0.9287       0.4826
   1415.15098       0.9812       0.4167    1415.15098       0.9811       0.4169
   1415.13572       0.9406       0.4477    1415.13572       0.9405       0.4479
   1415.12046       0.9318       0.3866    1415.12046       0.9318       0.3868
   1415.10520       1.0095       0.4530    1415.10520       1.0094       0.4532
   1415.08994       0.9495       0.3891    1415.08994       0.9494       0.3893
   1415.07468       0.9338       0.3949    1415.07468       0.9337       0.3951
   1415.05942       0.9803       0.4677    1415.05942       0.9802       0.4679
   1415.04417       0.9449       0.5231    1415.04417       0.9448       0.5234
   1415.02891       1.0148       0.5148    1415.02891       1.0147       0.5150
   1415.01365       0.9609       0.3962    1415.01365       0.9608       0.3963
   1414.99839       0.9227       0.4740    1414.99839       0.9226       0.4742
   1414.98313       0.8871       0.5497    1414.98313       0.8870       0.5500
   1414.96787       0.9602       0.5305    1414.96787       0.9601       0.5308
   1414.95261       0.9438       0.5084    1414.95261       0.9437       0.5086
   1414.93735       0.9003       0.4106    1414.93735       0.9002       0.4108
   1414.92209       0.9862       0.5090    1414.92209       0.9861       0.5092
   1414.90684       0.9562       0.4395    1414.90684       0.9561       0.4397
   1414.89158       1.0065       0.4520    1414.89158       1.0064       0.4522
   1414.87632       0.9995       0.4768    1414.87632       0.9994       0.4770
   1414.86106       0.9620       0.4673    1414.86106       0.9619       0.4675
   1414.84580       0.9467       0.4682    1414.84580       0.9466       0.4684
   1414.83054       0.9522       0.3955    1414.83054       0.9521       0.3957
   1414.81528       0.9725       0.4817    1414.81528       0.9724       0.4819
   1414.80002       0.9714       0.4942    1414.80002       0.9713       0.4944
   1414.78477       0.9480       0.5085    1414.78477       0.9479       0.5087
   1414.76951       0.9339       0.5214    1414.76951       0.9338       0.5216
   1414.75425       1.0234       0.4414    1414.75425       1.0233       0.4416
   1414.73899       0.9602       0.4742    1414.73899       0.9601       0.4744
   1414.72373       0.9766       0.4321    1414.72373       0.9765       0.4322
   1414.70847       0.9502       0.5313    1414.70847       0.9501       0.5316
   1414.69321       0.9011       0.4070    1414.69321       0.9010       0.4072
   1414.67795       0.9879       0.3982    1414.67795       0.9878       0.3983
   1414.66270       0.9196       0.3813    1414.66270       0.9195       0.3815
   1414.64744       0.9682       0.4687    1414.64744       0.9681       0.4689
   1414.63218       1.0295       0.4058    1414.63218       1.0294       0.4060
   1414.61692       0.9556       0.4540    1414.61692       0.9556       0.4542
   1414.60166       0.9450       0.4354    1414.60166       0.9449       0.4355
   1414.58640       0.9582       0.4128    1414.58640       0.9581       0.4129
   1414.57114       0.9791       0.4763    1414.57114       0.9790       0.4765
   1414.55588       1.0041       0.3906    1414.55588       1.0040       0.3907
   1414.54062       0.9173       0.3774    1414.54062       0.9172       0.3775
   1414.52537       1.0247       0.4377    1414.52537       1.0246       0.4379
   1414.51011       0.9522       0.4886    1414.51011       0.9521       0.4888
   1414.49485       0.9807       0.4624    1414.49485       0.9806       0.4626
   1414.47959       0.9703       0.5341    1414.47959       0.9702       0.5344
   1414.46433       1.0192       0.4605    1414.46433       1.0191       0.4607
   1414.44907       1.0059       0.4325    1414.44907       1.0058       0.4327
   1414.43381       0.9211       0.4301    1414.43381       0.9210       0.4302
   1414.41855       0.9979       0.4087    1414.41855       0.9978       0.4089
   1414.40330       0.9931       0.4584    1414.40330       0.9930       0.4586
   1414.38804       0.9242       0.4312    1414.38804       0.9241       0.4314
   1414.37278       0.9873       0.4370    1414.37278       0.9872       0.4371
   1414.35752       0.9691       0.4391    1414.35752       0.9690       0.4393
   1414.34226       1.0167       0.5163    1414.34226       1.0166       0.5165
   1414.32700       0.9363       0.4053    1414.32700       0.9362       0.4055
   1414.31174       0.9739       0.4929    1414.31174       0.9738       0.4931
   1414.29648       0.9863       0.4029    1414.29648       0.9862       0.4031
   1414.28123       1.0108       0.4474    1414.28123       1.0107       0.4476
   1414.26597       0.9197       0.4031    1414.26597       0.9196       0.4033
   1414.25071       1.0378       0.5378    1414.25071       1.0377       0.5380
   1414.23545       0.9389       0.4068    1414.23545       0.9388       0.4070
   1414.22019       0.9311       0.5140    1414.22019       0.9310       0.5142
   1414.20493       0.9189       0.4727    1414.20493       0.9188       0.4730
   1414.18967       0.9250       0.4858    1414.18967       0.9249       0.4860
   1414.17441       0.9998       0.4155    1414.17441       0.9997       0.4156
   1414.15916       0.9719       0.4778    1414.15916       0.9718       0.4780
   1414.14390       0.9085       0.4265    1414.14390       0.9084       0.4267
   1414.12864       0.9815       0.4105    1414.12864       0.9814       0.4107
   1414.11338       0.9247       0.4656    1414.11338       0.9246       0.4658
   1414.09812       0.9544       0.4252    1414.09812       0.9543       0.4253
   1414.08286       1.0906       0.5262    1414.08286       1.0905       0.5264
   1414.06760       0.9422       0.4549    1414.06760       0.9421       0.4550
   1414.05234       0.9387       0.4253    1414.05234       0.9386       0.4255
   1414.03708       0.9448       0.4941    1414.03708       0.9447       0.4943
   1414.02183       0.9725       0.4689    1414.02183       0.9724       0.4691
   1414.00657       1.0618       0.4772    1414.00657       1.0617       0.4774
   1413.99131       0.9406       0.4406    1413.99131       0.9405       0.4408
   1413.97605       1.0053       0.3888    1413.97605       1.0052       0.3890
   1413.96079       0.9221       0.5189    1413.96079       0.9220       0.5192
   1413.94553       0.9922       0.4267    1413.94553       0.9921       0.4269
   1413.93027       1.0160       0.5612    1413.93027       1.0159       0.5614
   1413.91501       0.8992       0.4752    1413.91501       0.8991       0.4754
   1413.89976       0.9862       0.5236    1413.89976       0.9861       0.5238
   1413.88450       0.9647       0.3874    1413.88450       0.9646       0.3876
   1413.86924       1.0103       0.4350    1413.86924       1.0102       0.4351
   1413.85398       0.9747       0.4388    1413.85398       0.9746       0.4389
   1413.83872       0.9157       0.4009    1413.83872       0.9156       0.4011
   1413.82346       0.9579       0.5503    1413.82346       0.9578       0.5505
   1413.80820       0.9700       0.4797    1413.80820       0.9699       0.4799
   1413.79294       0.9866       0.4079    1413.79294       0.9865       0.4081
   1413.77769       0.9321       0.4599    1413.77769       0.9320       0.4601
   1413.76243       0.9595       0.4944    1413.76243       0.9594       0.4946
   1413.74717       1.0383       0.5732    1413.74717       1.0382       0.5735
   1413.73191       0.9307       0.4664    1413.73191       0.9306       0.4666
   1413.71665       0.9081       0.4775    1413.71665       0.9080       0.4777
   1413.70139       0.9356       0.4015    1413.70139       0.9355       0.4017
   1413.68613       0.9026       0.3735    1413.68613       0.9025       0.3737
   1413.67087       0.8967       0.4632    1413.67087       0.8966       0.4634
   1413.65562       0.8814       0.4492    1413.65562       0.8813       0.4494
   1413.64036       0.9648       0.4441    1413.64036       0.9647       0.4443
   1413.62510       0.9775       0.5362    1413.62510       0.9774       0.5364
   1413.60984       0.9030       0.5260    1413.60984       0.9029       0.5262
   1413.59458       0.9098       0.4442    1413.59458       0.9097       0.4444
   1413.57932       0.9451       0.5285    1413.57932       0.9450       0.5288
   1413.56406       0.9524       0.4698    1413.56406       0.9523       0.4700
   1413.54880       0.9557       0.4508    1413.54880       0.9556       0.4510
   1413.53354       0.8865       0.5344    1413.53354       0.8864       0.5346
   1413.51829       0.9205       0.4686    1413.51829       0.9204       0.4688
   1413.50303       0.9441       0.4386    1413.50303       0.9440       0.4388
   1413.48777       0.8719       0.4379    1413.48777       0.8718       0.4381
   1413.47251       0.9956       0.5757    1413.47251       0.9955       0.5759
   1413.45725       0.9239       0.5167    1413.45725       0.9238       0.5169
   1413.44199       0.9676       0.5425    1413.44199       0.9675       0.5427
   1413.42673       0.9485       0.4375    1413.42673       0.9484       0.4377
   1413.41147       0.8710       0.5484    1413.41147       0.8709       0.5487
   1413.39622       0.9506       0.4949    1413.39622       0.9505       0.4951
