#     FILENAME=Skynet_58992_M31_30kpc_BC_44940_54548.A.onoff.cal.txt
#     BASENAME=Skynet_58992_M31_30kpc_BC_44940_54548
#      CONTROL=SKYNET
#     PROJCODE=Skynet_58992_M31_30kpc_BC_44940
#     DATAROOT=/raid/scratch/cyborg/SkynetData
#      DATADIR=/raid/scratch/cyborg
#     DATADIR2=/raid/scratch/cyborg/SkynetData/Skynet_58992_M31_30kpc_BC_44940
#     SCANNAME=2018_05_24_20
#     SRC_NAME=M31_30kpc_BC
#     OBSERVER=unioncollege_21317
#     DATE_OBS=2020-05-23T07:37:02.110
#        OBSID=44940
#      SCANNUM=54548
#          MJD=58992.3173855
#          UTC=27422
#     SCANTYPE=onoff
#     DATAMODE=HIRES
#     RECEIVER=Rx1_2
#      OBSFREQ=1395.0000
# Actual_FREQ1=1423.0000,
# Actual_FREQ2=1423.0000
#    LO1Tuning=6873.0000
#     RFFILTER=1355_1435
#        OBSBW=-15.6250
#     EFFBANDW=15.6250
#        NCHAN=1024
#    STARTCHAN=51
#     STOPCHAN=972
#         TINT=0.3000
#         TBIN=0.00026214
#       ACCLEN=2048 
#     DURATION=204.60
#     EXPOSURE=157.18
#        FOCUS=36.895
#       RA,DEC=00:35:27.11, 39:34:34.05
#      RA(deg)=7.49594
#     DEC(deg)=39.57616
#   WIDTH(deg)=2.0941x0.0352
#    AZIM(deg)=55.7976
#    ELEV(deg)=22.2730
#     COORDREF=RA_DEC_
#         HREF=8.7951
#         VREF=39.5763
#      RADESYS=FK5
#       OFFSYS=RADEC
#      EQUINOX=2000.00
#     IFATTENS=17.00, 1.00
#   BALANCELEV=1.200 
#   POWER_XLYR=[1.23, 1.33] 
#       VELDEF=RADI-OBS 
#     VELOCITY=0.000 
#         NPOL=2 
#      POLMODE=Linear 
#      POLTYPE=XXYY 
#      WARNING=None 
#     NOISECAL=HI 
#       PRECAL=2 
#      POSTCAL=2 
#     CRYOTEMP=296 
#      BOXTEMP=31 
#         TSYS=XX1:120.89, YY1:146.54
#         TSYS=XX2:120.89, YY2:146.62
#         TCAL=XX1:9.18, YY1:10.14
#         TCAL=XX2:9.18, YY2:10.14
# Calibrated spectra: Tsys*(ON-OFF)/OFF 
#                
#                
#Freq1(MHz)         XX1          YY1   Freq2(MHz)       XX2         YY2 
   1430.03430       0.9268       1.2543    1430.03430       0.9267       1.2550
   1430.01904       0.7383       1.6165    1430.01904       0.7383       1.6173
   1430.00378       0.6746       1.3974    1430.00378       0.6746       1.3981
   1429.98853       0.7547       1.7450    1429.98853       0.7547       1.7460
   1429.97327       0.7218       1.5870    1429.97327       0.7217       1.5879
   1429.95801       0.7430       1.5949    1429.95801       0.7430       1.5958
   1429.94275       1.1162       1.3493    1429.94275       1.1162       1.3501
   1429.92749       0.6778       1.4180    1429.92749       0.6778       1.4188
   1429.91223       0.8149       1.4842    1429.91223       0.8149       1.4850
   1429.89697       0.6960       1.5371    1429.89697       0.6960       1.5379
   1429.88171       0.6430       1.3687    1429.88171       0.6430       1.3694
   1429.86646       0.7510       1.3776    1429.86646       0.7510       1.3783
   1429.85120       1.1158       1.7254    1429.85120       1.1157       1.7264
   1429.83594       0.6486       1.6119    1429.83594       0.6486       1.6128
   1429.82068       0.7023       1.5728    1429.82068       0.7023       1.5737
   1429.80542       0.7656       1.5480    1429.80542       0.7656       1.5488
   1429.79016       0.9883       1.5133    1429.79016       0.9883       1.5141
   1429.77490       0.8138       1.5936    1429.77490       0.8138       1.5945
   1429.75964       0.4411       1.4937    1429.75964       0.4411       1.4945
   1429.74438       1.0503       1.6788    1429.74438       1.0503       1.6797
   1429.72913       0.9142       1.5350    1429.72913       0.9141       1.5358
   1429.71387       0.7970       1.4719    1429.71387       0.7969       1.4727
   1429.69861       0.7575       1.5896    1429.69861       0.7575       1.5905
   1429.68335       0.8530       1.5448    1429.68335       0.8530       1.5457
   1429.66809       0.4502       1.4361    1429.66809       0.4502       1.4368
   1429.65283       0.8055       1.3447    1429.65283       0.8054       1.3454
   1429.63757       0.6241       1.7150    1429.63757       0.6240       1.7160
   1429.62231       0.6160       1.7670    1429.62231       0.6160       1.7680
   1429.60706       0.7582       1.5225    1429.60706       0.7582       1.5234
   1429.59180       0.8255       1.6608    1429.59180       0.8254       1.6617
   1429.57654       0.6693       1.4930    1429.57654       0.6693       1.4938
   1429.56128       0.8244       1.7079    1429.56128       0.8244       1.7088
   1429.54602       0.8937       1.2168    1429.54602       0.8937       1.2175
   1429.53076       0.5250       1.5576    1429.53076       0.5250       1.5585
   1429.51550       0.5736       1.6683    1429.51550       0.5736       1.6692
   1429.50024       0.6338       1.3610    1429.50024       0.6338       1.3617
   1429.48499       0.3734       1.6267    1429.48499       0.3734       1.6276
   1429.46973       0.6158       1.3337    1429.46973       0.6158       1.3344
   1429.45447       0.4858       1.3952    1429.45447       0.4858       1.3960
   1429.43921       0.8905       1.4322    1429.43921       0.8905       1.4330
   1429.42395       0.7648       1.7214    1429.42395       0.7648       1.7223
   1429.40869       0.7902       1.5329    1429.40869       0.7902       1.5338
   1429.39343       0.8574       1.7406    1429.39343       0.8574       1.7416
   1429.37817       0.6585       1.8110    1429.37817       0.6585       1.8120
   1429.36292       0.7706       1.7031    1429.36292       0.7706       1.7040
   1429.34766       0.7456       1.9588    1429.34766       0.7455       1.9599
   1429.33240       0.4118       1.5537    1429.33240       0.4118       1.5546
   1429.31714       0.7398       1.6904    1429.31714       0.7397       1.6914
   1429.30188       0.3891       1.6051    1429.30188       0.3891       1.6060
   1429.28662       0.6101       1.4653    1429.28662       0.6101       1.4661
   1429.27136       0.5794       1.8045    1429.27136       0.5794       1.8055
   1429.25610       0.7241       1.7465    1429.25610       0.7240       1.7474
   1429.24084       0.7659       1.1917    1429.24084       0.7658       1.1923
   1429.22559       0.7509       1.5366    1429.22559       0.7509       1.5374
   1429.21033       0.6907       1.6220    1429.21033       0.6906       1.6228
   1429.19507       0.9529       2.1854    1429.19507       0.9529       2.1866
   1429.17981       0.4856       1.5714    1429.17981       0.4856       1.5723
   1429.16455       0.7633       1.5019    1429.16455       0.7633       1.5027
   1429.14929       0.7147       1.4868    1429.14929       0.7147       1.4876
   1429.13403       0.7191       1.4495    1429.13403       0.7191       1.4503
   1429.11877       0.9173       1.7596    1429.11877       0.9173       1.7605
   1429.10352       0.9448       1.5089    1429.10352       0.9448       1.5097
   1429.08826       0.9349       1.5812    1429.08826       0.9348       1.5820
   1429.07300       0.6986       1.6897    1429.07300       0.6985       1.6906
   1429.05774       0.6329       1.8011    1429.05774       0.6329       1.8021
   1429.04248       0.6088       1.5161    1429.04248       0.6088       1.5169
   1429.02722       0.7286       1.7845    1429.02722       0.7286       1.7855
   1429.01196       0.9204       1.8431    1429.01196       0.9203       1.8442
   1428.99670       0.6397       1.5976    1428.99670       0.6397       1.5984
   1428.98145       0.8715       1.6683    1428.98145       0.8715       1.6693
   1428.96619       0.4254       1.8176    1428.96619       0.4253       1.8186
   1428.95093       0.7565       1.1850    1428.95093       0.7565       1.1856
   1428.93567       0.9480       1.3982    1428.93567       0.9480       1.3990
   1428.92041       0.5345       2.0310    1428.92041       0.5345       2.0321
   1428.90515       0.3816       1.6657    1428.90515       0.3816       1.6666
   1428.88989       0.5720       1.8066    1428.88989       0.5720       1.8075
   1428.87463       0.7600       1.4198    1428.87463       0.7599       1.4206
   1428.85938       0.5618       1.9856    1428.85938       0.5617       1.9867
   1428.84412       0.6903       1.4645    1428.84412       0.6903       1.4653
   1428.82886       0.4680       1.6575    1428.82886       0.4680       1.6584
   1428.81360       0.5050       1.8568    1428.81360       0.5050       1.8578
   1428.79834       0.5919       1.4642    1428.79834       0.5919       1.4650
   1428.78308       0.5393       1.6171    1428.78308       0.5393       1.6180
   1428.76782       0.6790       1.5432    1428.76782       0.6790       1.5440
   1428.75256       0.7158       1.7450    1428.75256       0.7157       1.7459
   1428.73730       0.4351       1.4586    1428.73730       0.4351       1.4594
   1428.72205       0.7788       1.5719    1428.72205       0.7787       1.5727
   1428.70679       0.4913       1.5188    1428.70679       0.4913       1.5196
   1428.69153       0.4822       1.7140    1428.69153       0.4822       1.7149
   1428.67627       0.4485       1.2269    1428.67627       0.4485       1.2276
   1428.66101       0.7107       1.7928    1428.66101       0.7107       1.7938
   1428.64575       0.3863       1.4427    1428.64575       0.3863       1.4435
   1428.63049       0.6261       1.5934    1428.63049       0.6261       1.5943
   1428.61523       0.5650       1.8578    1428.61523       0.5650       1.8588
   1428.59998       0.6197       1.6771    1428.59998       0.6197       1.6781
   1428.58472       0.5982       1.4392    1428.58472       0.5982       1.4400
   1428.56946       0.6489       1.6838    1428.56946       0.6488       1.6848
   1428.55420       0.8392       1.4270    1428.55420       0.8392       1.4278
   1428.53894       0.5186       1.5746    1428.53894       0.5186       1.5754
   1428.52368       0.5827       1.7343    1428.52368       0.5826       1.7352
   1428.50842       0.6068       1.7001    1428.50842       0.6068       1.7010
   1428.49316       0.3670       1.8673    1428.49316       0.3669       1.8684
   1428.47791       0.4966       1.8744    1428.47791       0.4966       1.8755
   1428.46265       0.6714       1.5984    1428.46265       0.6714       1.5992
   1428.44739       0.7300       2.1043    1428.44739       0.7300       2.1055
   1428.43213       0.4894       1.9069    1428.43213       0.4894       1.9079
   1428.41687       0.5546       1.4372    1428.41687       0.5546       1.4380
   1428.40161       0.7410       1.8023    1428.40161       0.7409       1.8033
   1428.38635       0.6958       1.7582    1428.38635       0.6957       1.7591
   1428.37109       0.6479       1.9061    1428.37109       0.6479       1.9072
   1428.35583       0.3339       1.4887    1428.35583       0.3339       1.4895
   1428.34058       0.6134       1.4329    1428.34058       0.6134       1.4337
   1428.32532       0.6251       1.7093    1428.32532       0.6251       1.7102
   1428.31006       0.6931       1.8235    1428.31006       0.6931       1.8245
   1428.29480       0.5158       1.8347    1428.29480       0.5157       1.8357
   1428.27954       0.6571       1.3177    1428.27954       0.6571       1.3184
   1428.26428       0.7368       1.5970    1428.26428       0.7368       1.5979
   1428.24902       0.4217       1.5517    1428.24902       0.4217       1.5526
   1428.23376       1.0090       1.5032    1428.23376       1.0089       1.5040
   1428.21851       0.7167       1.4323    1428.21851       0.7167       1.4330
   1428.20325       0.4443       1.4039    1428.20325       0.4443       1.4046
   1428.18799       0.7236       1.5340    1428.18799       0.7235       1.5348
   1428.17273       0.5062       1.5336    1428.17273       0.5062       1.5344
   1428.15747       0.6156       1.6895    1428.15747       0.6156       1.6904
   1428.14221       0.7364       1.4675    1428.14221       0.7363       1.4683
   1428.12695       0.4373       1.8746    1428.12695       0.4372       1.8756
   1428.11169       0.3394       1.8688    1428.11169       0.3394       1.8698
   1428.09644       0.6505       1.6445    1428.09644       0.6505       1.6454
   1428.08118       0.7413       1.7237    1428.08118       0.7413       1.7246
   1428.06592       0.5526       1.5856    1428.06592       0.5526       1.5865
   1428.05066       0.4929       1.5662    1428.05066       0.4929       1.5671
   1428.03540       0.5359       1.6033    1428.03540       0.5358       1.6042
   1428.02014       0.7403       1.5049    1428.02014       0.7403       1.5057
   1428.00488       0.6288       1.6985    1428.00488       0.6287       1.6994
   1427.98962       0.5315       1.6808    1427.98962       0.5314       1.6817
   1427.97437       0.8001       1.3795    1427.97437       0.8001       1.3802
   1427.95911       0.7435       1.3988    1427.95911       0.7435       1.3996
   1427.94385       0.5424       1.3160    1427.94385       0.5424       1.3167
   1427.92859       0.5880       1.5629    1427.92859       0.5880       1.5637
   1427.91333       0.4861       1.5123    1427.91333       0.4860       1.5132
   1427.89807       0.7552       1.4080    1427.89807       0.7552       1.4087
   1427.88281       0.6212       1.5509    1427.88281       0.6212       1.5518
   1427.86755       0.6436       1.4243    1427.86755       0.6436       1.4251
   1427.85229       0.8073       1.6560    1427.85229       0.8072       1.6569
   1427.83704       0.7129       1.5154    1427.83704       0.7129       1.5162
   1427.82178       0.8782       1.4537    1427.82178       0.8781       1.4545
   1427.80652       0.7567       1.5617    1427.80652       0.7567       1.5625
   1427.79126       0.5803       1.4668    1427.79126       0.5803       1.4676
   1427.77600       0.7868       1.5385    1427.77600       0.7868       1.5394
   1427.76074       0.6252       1.5656    1427.76074       0.6252       1.5665
   1427.74548       0.3592       1.6847    1427.74548       0.3592       1.6856
   1427.73022       0.6699       1.3327    1427.73022       0.6699       1.3335
   1427.71497       0.5964       1.5341    1427.71497       0.5964       1.5349
   1427.69971       0.7808       1.7463    1427.69971       0.7808       1.7472
   1427.68445       0.7075       1.8032    1427.68445       0.7075       1.8041
   1427.66919       0.4487       1.2695    1427.66919       0.4487       1.2702
   1427.65393       0.7537       1.5675    1427.65393       0.7537       1.5684
   1427.63867       0.6547       1.6029    1427.63867       0.6546       1.6038
   1427.62341       0.5649       1.3998    1427.62341       0.5649       1.4006
   1427.60815       0.7334       1.5039    1427.60815       0.7333       1.5047
   1427.59290       0.7134       1.4247    1427.59290       0.7134       1.4255
   1427.57764       0.7564       1.6427    1427.57764       0.7564       1.6436
   1427.56238       0.5938       1.5583    1427.56238       0.5938       1.5592
   1427.54712       0.6635       1.3208    1427.54712       0.6635       1.3216
   1427.53186       0.5703       1.5742    1427.53186       0.5703       1.5751
   1427.51660       0.6461       1.2998    1427.51660       0.6461       1.3005
   1427.50134       0.6112       1.6414    1427.50134       0.6112       1.6423
   1427.48608       0.5089       1.4634    1427.48608       0.5088       1.4642
   1427.47083       0.6060       1.2279    1427.47083       0.6060       1.2286
   1427.45557       0.8499       1.4843    1427.45557       0.8499       1.4851
   1427.44031       0.8408       1.5291    1427.44031       0.8408       1.5300
   1427.42505       0.7935       1.7334    1427.42505       0.7934       1.7344
   1427.40979       0.7569       1.0207    1427.40979       0.7569       1.0213
   1427.39453       0.8102       1.5120    1427.39453       0.8102       1.5128
   1427.37927       0.6834       1.6161    1427.37927       0.6834       1.6170
   1427.36401       0.5214       1.4399    1427.36401       0.5214       1.4406
   1427.34875       0.6946       1.6181    1427.34875       0.6945       1.6190
   1427.33350       0.8430       1.6996    1427.33350       0.8430       1.7005
   1427.31824       0.9624       1.6092    1427.31824       0.9624       1.6101
   1427.30298       0.8497       1.4450    1427.30298       0.8496       1.4458
   1427.28772       0.6556       1.4723    1427.28772       0.6556       1.4731
   1427.27246       0.7662       1.3290    1427.27246       0.7662       1.3297
   1427.25720       0.6780       1.3344    1427.25720       0.6779       1.3352
   1427.24194       0.9835       1.4694    1427.24194       0.9835       1.4702
   1427.22668       0.7287       1.8180    1427.22668       0.7286       1.8190
   1427.21143       0.8859       1.4320    1427.21143       0.8858       1.4327
   1427.19617       0.6198       1.3240    1427.19617       0.6198       1.3247
   1427.18091       0.6320       1.3941    1427.18091       0.6320       1.3949
   1427.16565       0.8362       1.3625    1427.16565       0.8362       1.3633
   1427.15039       0.8045       1.5129    1427.15039       0.8045       1.5137
   1427.13513       0.7735       1.5977    1427.13513       0.7735       1.5986
   1427.11987       0.5728       1.4731    1427.11987       0.5728       1.4739
   1427.10461       0.7432       1.4431    1427.10461       0.7432       1.4439
   1427.08936       0.5332       1.1678    1427.08936       0.5332       1.1685
   1427.07410       0.8405       1.2868    1427.07410       0.8405       1.2875
   1427.05884       0.6511       1.4312    1427.05884       0.6511       1.4319
   1427.04358       0.7589       1.3186    1427.04358       0.7588       1.3193
   1427.02832       0.8209       1.3448    1427.02832       0.8209       1.3456
   1427.01306       0.7229       1.4950    1427.01306       0.7229       1.4958
   1426.99780       0.9506       1.2188    1426.99780       0.9506       1.2195
   1426.98254       0.6666       1.5769    1426.98254       0.6666       1.5777
   1426.96729       0.6346       1.4815    1426.96729       0.6346       1.4823
   1426.95203       0.6490       1.3562    1426.95203       0.6490       1.3569
   1426.93677       0.8024       1.5762    1426.93677       0.8023       1.5771
   1426.92151       0.9784       1.2375    1426.92151       0.9784       1.2381
   1426.90625       0.8716       1.3829    1426.90625       0.8716       1.3836
   1426.89099       0.7546       1.5762    1426.89099       0.7546       1.5770
   1426.87573       0.9061       1.5156    1426.87573       0.9061       1.5164
   1426.86047       0.7454       1.4105    1426.86047       0.7453       1.4112
   1426.84521       0.9808       1.2534    1426.84521       0.9808       1.2541
   1426.82996       0.8632       1.3696    1426.82996       0.8632       1.3703
   1426.81470       0.6757       1.3323    1426.81470       0.6757       1.3330
   1426.79944       0.9169       1.1865    1426.79944       0.9169       1.1871
   1426.78418       0.6325       1.1960    1426.78418       0.6325       1.1966
   1426.76892       0.6971       1.0977    1426.76892       0.6970       1.0983
   1426.75366       0.6446       1.2460    1426.75366       0.6446       1.2467
   1426.73840       0.6960       1.2970    1426.73840       0.6960       1.2977
   1426.72314       0.8393       1.1852    1426.72314       0.8392       1.1859
   1426.70789       0.8317       1.3487    1426.70789       0.8316       1.3494
   1426.69263       0.8536       1.2029    1426.69263       0.8536       1.2036
   1426.67737       0.7077       0.9512    1426.67737       0.7077       0.9517
   1426.66211       1.2919       1.5104    1426.66211       1.2918       1.5112
   1426.64685       0.7412       1.4856    1426.64685       0.7412       1.4864
   1426.63159       0.7798       1.2435    1426.63159       0.7798       1.2442
   1426.61633       0.9911       1.1460    1426.61633       0.9911       1.1466
   1426.60107       0.7689       1.2984    1426.60107       0.7689       1.2991
   1426.58582       0.9757       1.5251    1426.58582       0.9757       1.5260
   1426.57056       0.7458       0.9935    1426.57056       0.7458       0.9940
   1426.55530       0.8581       1.3982    1426.55530       0.8580       1.3990
   1426.54004       0.8591       1.3201    1426.54004       0.8590       1.3208
   1426.52478       0.9879       1.1414    1426.52478       0.9879       1.1420
   1426.50952       0.9981       1.1854    1426.50952       0.9980       1.1860
   1426.49426       0.9624       1.2763    1426.49426       0.9623       1.2770
   1426.47900       0.9241       1.0567    1426.47900       0.9241       1.0573
   1426.46375       1.0797       1.4753    1426.46375       1.0797       1.4761
   1426.44849       0.9139       1.4726    1426.44849       0.9138       1.4734
   1426.43323       0.8203       1.1224    1426.43323       0.8203       1.1230
   1426.41797       0.8140       1.3350    1426.41797       0.8140       1.3357
   1426.40271       0.9260       1.0682    1426.40271       0.9260       1.0688
   1426.38745       0.9337       0.9721    1426.38745       0.9337       0.9727
   1426.37219       0.8288       1.1454    1426.37219       0.8288       1.1460
   1426.35693       1.1490       1.1599    1426.35693       1.1490       1.1606
   1426.34167       1.0046       1.4039    1426.34167       1.0046       1.4047
   1426.32642       0.9697       1.3234    1426.32642       0.9696       1.3242
   1426.31116       1.0525       1.2236    1426.31116       1.0524       1.2242
   1426.29590       0.9555       1.0416    1426.29590       0.9554       1.0422
   1426.28064       0.7106       0.9228    1426.28064       0.7106       0.9233
   1426.26538       0.7906       0.9843    1426.26538       0.7906       0.9848
   1426.25012       1.0572       1.3667    1426.25012       1.0571       1.3674
   1426.23486       0.8823       1.4339    1426.23486       0.8823       1.4347
   1426.21960       0.9046       1.3154    1426.21960       0.9046       1.3161
   1426.20435       0.8282       1.2846    1426.20435       0.8282       1.2853
   1426.18909       0.7294       1.1747    1426.18909       0.7294       1.1753
   1426.17383       0.7957       1.4459    1426.17383       0.7957       1.4467
   1426.15857       1.0487       1.2665    1426.15857       1.0486       1.2672
   1426.14331       1.0716       1.1551    1426.14331       1.0715       1.1558
   1426.12805       0.9257       1.1462    1426.12805       0.9257       1.1469
   1426.11279       0.9493       1.1082    1426.11279       0.9492       1.1088
   1426.09753       1.0516       1.1892    1426.09753       1.0516       1.1898
   1426.08228       1.0772       1.1496    1426.08228       1.0771       1.1503
   1426.06702       1.1086       1.0332    1426.06702       1.1086       1.0338
   1426.05176       1.1959       0.9220    1426.05176       1.1958       0.9225
   1426.03650       1.3054       1.0707    1426.03650       1.3053       1.0713
   1426.02124       0.9261       1.3344    1426.02124       0.9261       1.3352
   1426.00598       0.8738       1.1817    1426.00598       0.8738       1.1824
   1425.99072       1.2253       1.0899    1425.99072       1.2253       1.0905
   1425.97546       0.9651       1.2093    1425.97546       0.9651       1.2099
   1425.96021       0.8765       1.0462    1425.96021       0.8765       1.0468
   1425.94495       0.8046       0.9991    1425.94495       0.8046       0.9997
   1425.92969       1.0922       0.9332    1425.92969       1.0922       0.9337
   1425.91443       1.1532       1.1627    1425.91443       1.1532       1.1633
   1425.89917       1.1668       1.2388    1425.89917       1.1668       1.2395
   1425.88391       1.0544       0.8451    1425.88391       1.0544       0.8456
   1425.86865       0.9619       0.9168    1425.86865       0.9619       0.9173
   1425.85339       1.2837       1.2450    1425.85339       1.2836       1.2457
   1425.83813       1.0923       1.1842    1425.83813       1.0922       1.1848
   1425.82288       1.0979       1.4268    1425.82288       1.0978       1.4276
   1425.80762       1.0814       0.9392    1425.80762       1.0813       0.9397
   1425.79236       1.1277       0.9226    1425.79236       1.1277       0.9231
   1425.77710       1.0818       1.2014    1425.77710       1.0818       1.2021
   1425.76184       0.9706       1.3547    1425.76184       0.9706       1.3554
   1425.74658       1.1450       0.9097    1425.74658       1.1450       0.9102
   1425.73132       1.0604       0.8714    1425.73132       1.0604       0.8719
   1425.71606       1.1054       1.0193    1425.71606       1.1054       1.0199
   1425.70081       1.1329       0.9154    1425.70081       1.1328       0.9159
   1425.68555       0.9327       0.9647    1425.68555       0.9326       0.9652
   1425.67029       0.8802       0.7566    1425.67029       0.8802       0.7570
   1425.65503       1.0793       0.8890    1425.65503       1.0792       0.8895
   1425.63977       1.2759       1.2951    1425.63977       1.2758       1.2959
   1425.62451       1.0938       0.9929    1425.62451       1.0937       0.9934
   1425.60925       1.0134       1.3544    1425.60925       1.0133       1.3551
   1425.59399       1.0136       1.1604    1425.59399       1.0135       1.1611
   1425.57874       1.1733       0.9951    1425.57874       1.1733       0.9956
   1425.56348       1.2539       0.8435    1425.56348       1.2538       0.8440
   1425.54822       1.0976       0.8323    1425.54822       1.0976       0.8328
   1425.53296       1.2768       1.0229    1425.53296       1.2768       1.0234
   1425.51770       1.1317       1.1727    1425.51770       1.1316       1.1734
   1425.50244       1.1119       0.8686    1425.50244       1.1119       0.8690
   1425.48718       1.3844       0.7973    1425.48718       1.3843       0.7977
   1425.47192       1.3060       0.7038    1425.47192       1.3059       0.7042
   1425.45667       0.9407       0.9725    1425.45667       0.9407       0.9730
   1425.44141       1.1545       1.0564    1425.44141       1.1544       1.0569
   1425.42615       1.0142       1.2816    1425.42615       1.0141       1.2823
   1425.41089       1.1396       0.9466    1425.41089       1.1396       0.9471
   1425.39563       0.9943       0.7708    1425.39563       0.9943       0.7712
   1425.38037       1.1762       1.1176    1425.38037       1.1762       1.1182
   1425.36511       1.2862       0.9496    1425.36511       1.2862       0.9502
   1425.34985       1.2062       1.1610    1425.34985       1.2061       1.1616
   1425.33459       1.1466       1.1763    1425.33459       1.1465       1.1769
   1425.31934       1.0522       0.7601    1425.31934       1.0522       0.7606
   1425.30408       1.3322       0.6516    1425.30408       1.3321       0.6519
   1425.28882       1.0931       0.9176    1425.28882       1.0930       0.9181
   1425.27356       1.2814       1.2208    1425.27356       1.2814       1.2214
   1425.25830       1.0381       1.0176    1425.25830       1.0381       1.0182
   1425.24304       1.4226       0.7830    1425.24304       1.4225       0.7834
   1425.22778       1.2145       0.8209    1425.22778       1.2144       0.8213
   1425.21252       1.0960       1.1052    1425.21252       1.0960       1.1058
   1425.19727       1.2609       0.8138    1425.19727       1.2608       0.8143
   1425.18201       1.0502       0.9295    1425.18201       1.0501       0.9300
   1425.16675       1.0301       1.2197    1425.16675       1.0301       1.2204
   1425.15149       1.0211       1.1600    1425.15149       1.0210       1.1606
   1425.13623       1.2745       0.9967    1425.13623       1.2745       0.9973
   1425.12097       1.2801       0.9147    1425.12097       1.2800       0.9152
   1425.10571       1.1862       0.8279    1425.10571       1.1861       0.8284
   1425.09045       1.0640       0.8662    1425.09045       1.0640       0.8667
   1425.07520       1.1530       0.7765    1425.07520       1.1530       0.7769
   1425.05994       1.2923       0.8105    1425.05994       1.2923       0.8110
   1425.04468       1.3234       0.8548    1425.04468       1.3233       0.8553
   1425.02942       1.3218       0.8567    1425.02942       1.3217       0.8572
   1425.01416       1.0943       0.7227    1425.01416       1.0942       0.7231
   1424.99890       1.2321       0.9595    1424.99890       1.2320       0.9600
   1424.98364       1.0206       0.6584    1424.98364       1.0205       0.6588
   1424.96838       1.2433       0.9471    1424.96838       1.2432       0.9476
   1424.95312       1.2475       0.8370    1424.95312       1.2474       0.8375
   1424.93787       1.1339       0.4993    1424.93787       1.1339       0.4996
   1424.92261       1.2418       0.7886    1424.92261       1.2418       0.7891
   1424.90735       1.3226       0.7907    1424.90735       1.3225       0.7911
   1424.89209       1.0225       0.7446    1424.89209       1.0225       0.7450
   1424.87683       1.1107       0.7638    1424.87683       1.1107       0.7642
   1424.86157       1.2058       1.0608    1424.86157       1.2057       1.0614
   1424.84631       1.2917       0.7815    1424.84631       1.2917       0.7819
   1424.83105       1.0751       1.0797    1424.83105       1.0751       1.0803
   1424.81580       1.6314       0.7145    1424.81580       1.6314       0.7148
   1424.80054       1.3558       0.8693    1424.80054       1.3558       0.8697
   1424.78528       1.3799       0.7668    1424.78528       1.3799       0.7673
   1424.77002       1.5363       1.0383    1424.77002       1.5363       1.0388
   1424.75476       1.3694       0.7940    1424.75476       1.3693       0.7944
   1424.73950       1.4809       1.1846    1424.73950       1.4808       1.1852
   1424.72424       1.3747       0.7075    1424.72424       1.3747       0.7078
   1424.70898       1.2870       0.7913    1424.70898       1.2870       0.7917
   1424.69373       1.1718       0.6927    1424.69373       1.1718       0.6931
   1424.67847       1.3502       0.9426    1424.67847       1.3501       0.9431
   1424.66321       1.2006       0.9725    1424.66321       1.2005       0.9730
   1424.64795       1.1913       0.6903    1424.64795       1.1913       0.6907
   1424.63269       1.1597       0.8382    1424.63269       1.1597       0.8386
   1424.61743       1.1783       0.8181    1424.61743       1.1783       0.8185
   1424.60217       1.3147       0.9140    1424.60217       1.3146       0.9145
   1424.58691       1.3935       0.6997    1424.58691       1.3935       0.7001
   1424.57166       1.4067       0.8920    1424.57166       1.4066       0.8925
   1424.55640       1.3227       0.9096    1424.55640       1.3227       0.9101
   1424.54114       1.3227       0.8138    1424.54114       1.3227       0.8142
   1424.52588       1.2079       0.4440    1424.52588       1.2079       0.4443
   1424.51062       1.1431       0.6739    1424.51062       1.1430       0.6743
   1424.49536       1.4372       0.8140    1424.49536       1.4372       0.8144
   1424.48010       1.2902       0.6269    1424.48010       1.2901       0.6273
   1424.46484       1.4266       0.6755    1424.46484       1.4266       0.6759
   1424.44958       1.4227       0.8593    1424.44958       1.4226       0.8598
   1424.43433       1.2931       1.0038    1424.43433       1.2931       1.0044
   1424.41907       1.3730       0.6997    1424.41907       1.3730       0.7001
   1424.40381       1.2067       0.5826    1424.40381       1.2067       0.5829
   1424.38855       1.4108       0.7339    1424.38855       1.4108       0.7343
   1424.37329       1.2502       0.9002    1424.37329       1.2502       0.9007
   1424.35803       1.3577       0.8014    1424.35803       1.3577       0.8018
   1424.34277       1.3324       0.8224    1424.34277       1.3324       0.8228
   1424.32751       1.3398       0.8021    1424.32751       1.3397       0.8026
   1424.31226       1.4387       0.9730    1424.31226       1.4387       0.9736
   1424.29700       1.1721       0.6641    1424.29700       1.1720       0.6645
   1424.28174       1.2942       0.5893    1424.28174       1.2941       0.5896
   1424.26648       1.3815       0.7203    1424.26648       1.3814       0.7207
   1424.25122       1.2255       0.6092    1424.25122       1.2255       0.6095
   1424.23596       1.1847       0.8274    1424.23596       1.1846       0.8278
   1424.22070       1.2416       0.7361    1424.22070       1.2416       0.7365
   1424.20544       1.0905       0.8537    1424.20544       1.0905       0.8542
   1424.19019       1.3769       0.8146    1424.19019       1.3769       0.8151
   1424.17493       1.1687       0.8879    1424.17493       1.1687       0.8884
   1424.15967       0.9575       0.7684    1424.15967       0.9575       0.7688
   1424.14441       1.2981       0.8603    1424.14441       1.2980       0.8608
   1424.12915       1.2699       0.7494    1424.12915       1.2698       0.7498
   1424.11389       1.0243       0.7952    1424.11389       1.0242       0.7956
   1424.09863       1.1569       0.9371    1424.09863       1.1568       0.9376
   1424.08337       1.0553       0.6408    1424.08337       1.0553       0.6412
   1424.06812       1.0040       0.8602    1424.06812       1.0040       0.8607
   1424.05286       1.0667       0.8497    1424.05286       1.0666       0.8501
   1424.03760       1.0782       0.9226    1424.03760       1.0782       0.9231
   1424.02234       1.1278       0.6110    1424.02234       1.1277       0.6113
   1424.00708       1.2073       0.5546    1424.00708       1.2073       0.5549
   1423.99182       1.1959       0.7659    1423.99182       1.1959       0.7664
   1423.97656       0.9589       0.7123    1423.97656       0.9589       0.7127
   1423.96130       1.1163       0.9355    1423.96130       1.1162       0.9360
   1423.94604       1.0573       0.6268    1423.94604       1.0573       0.6272
   1423.93079       1.1340       0.6657    1423.93079       1.1340       0.6661
   1423.91553       1.2047       0.5816    1423.91553       1.2047       0.5819
   1423.90027       1.0912       0.4540    1423.90027       1.0911       0.4542
   1423.88501       1.3224       0.9202    1423.88501       1.3223       0.9207
   1423.86975       1.3862       0.8776    1423.86975       1.3861       0.8780
   1423.85449       1.2375       0.5451    1423.85449       1.2374       0.5454
   1423.83923       1.2015       0.7689    1423.83923       1.2014       0.7693
   1423.82397       1.2938       0.6703    1423.82397       1.2937       0.6707
   1423.80872       1.1549       0.7315    1423.80872       1.1549       0.7319
   1423.79346       1.1653       0.9217    1423.79346       1.1652       0.9222
   1423.77820       1.3282       0.7172    1423.77820       1.3281       0.7176
   1423.76294       1.2142       0.9282    1423.76294       1.2141       0.9287
   1423.74768       1.0266       0.7387    1423.74768       1.0266       0.7391
   1423.73242       1.3342       1.0981    1423.73242       1.3341       1.0987
   1423.71716       1.2719       0.8000    1423.71716       1.2719       0.8004
   1423.70190       1.3193       0.8936    1423.70190       1.3192       0.8941
   1423.68665       1.1729       1.0165    1423.68665       1.1728       1.0170
   1423.67139       1.0866       0.5705    1423.67139       1.0866       0.5708
   1423.65613       1.0810       0.7385    1423.65613       1.0809       0.7389
   1423.64087       1.1712       0.7373    1423.64087       1.1711       0.7377
   1423.62561       1.3472       0.7725    1423.62561       1.3472       0.7729
   1423.61035       1.2380       0.7563    1423.61035       1.2379       0.7567
   1423.59509       1.3042       0.7154    1423.59509       1.3042       0.7158
   1423.57983       1.2751       0.8639    1423.57983       1.2751       0.8644
   1423.56458       1.2233       0.7992    1423.56458       1.2232       0.7996
   1423.54932       0.9744       0.8646    1423.54932       0.9744       0.8651
   1423.53406       1.1764       0.9808    1423.53406       1.1763       0.9814
   1423.51880       1.0891       0.6307    1423.51880       1.0891       0.6311
   1423.50354       1.2046       0.6002    1423.50354       1.2045       0.6005
   1423.48828       1.2835       0.7969    1423.48828       1.2835       0.7974
   1423.47302       1.1588       0.6828    1423.47302       1.1588       0.6832
   1423.45776       1.2766       0.7381    1423.45776       1.2766       0.7385
   1423.44250       1.2023       0.8052    1423.44250       1.2023       0.8057
   1423.42725       0.9450       0.8557    1423.42725       0.9449       0.8562
   1423.41199       1.1233       0.7476    1423.41199       1.1233       0.7480
   1423.39673       1.1786       0.8039    1423.39673       1.1785       0.8044
   1423.38147       0.9212       0.6668    1423.38147       0.9212       0.6672
   1423.36621       1.2811       0.7926    1423.36621       1.2810       0.7930
   1423.35095       0.8083       0.8484    1423.35095       0.8082       0.8489
   1423.33569       1.3504       0.7329    1423.33569       1.3504       0.7333
   1423.32043       1.3835       0.9065    1423.32043       1.3835       0.9070
   1423.30518       1.2634       0.6774    1423.30518       1.2633       0.6778
   1423.28992       1.2914       0.8552    1423.28992       1.2913       0.8557
   1423.27466       1.3149       0.4457    1423.27466       1.3148       0.4459
   1423.25940       1.2507       0.6531    1423.25940       1.2507       0.6535
   1423.24414       1.2948       0.9656    1423.24414       1.2947       0.9662
   1423.22888       1.3006       0.9165    1423.22888       1.3005       0.9170
   1423.21362       1.1285       0.9589    1423.21362       1.1285       0.9594
   1423.19836       1.2917       0.5757    1423.19836       1.2917       0.5760
   1423.18311       1.1845       0.7405    1423.18311       1.1844       0.7409
   1423.16785       1.3610       0.4862    1423.16785       1.3610       0.4865
   1423.15259       1.2357       0.6741    1423.15259       1.2357       0.6745
   1423.13733       1.1377       0.7281    1423.13733       1.1376       0.7285
   1423.12207       1.3531       0.5878    1423.12207       1.3531       0.5881
   1423.10681       1.3680       0.7528    1423.10681       1.3679       0.7532
   1423.09155       1.3665       0.9689    1423.09155       1.3664       0.9694
   1423.07629       1.2207       0.7153    1423.07629       1.2206       0.7157
   1423.06104       1.4039       1.1141    1423.06104       1.4039       1.1148
   1423.04578       1.4221       0.9362    1423.04578       1.4220       0.9367
   1423.03052       1.6057       1.3461    1423.03052       1.6057       1.3468
   1423.01526       1.8547       3.3189    1423.01526       1.8546       3.3207
   1423.00000       2.3916       3.3915    1423.00000       2.3915       3.3933
   1422.98474       2.9286       3.4225    1422.98474       2.9285       3.4244
   1422.96948       2.6746       2.3162    1422.96948       2.6745       2.3175
   1422.95422       2.9219       2.5747    1422.95422       2.9218       2.5761
   1422.93896       3.3790       2.8169    1422.93896       3.3789       2.8184
   1422.92371       3.1046       2.8832    1422.92371       3.1045       2.8847
   1422.90845       2.9508       2.5303    1422.90845       2.9507       2.5317
   1422.89319       2.9449       2.2296    1422.89319       2.9448       2.2308
   1422.87793       2.3563       1.8904    1422.87793       2.3563       1.8914
   1422.86267       1.9892       2.0004    1422.86267       1.9891       2.0015
   1422.84741       1.7479       1.4921    1422.84741       1.7478       1.4929
   1422.83215       1.6614       1.4099    1422.83215       1.6614       1.4107
   1422.81689       1.6418       1.1132    1422.81689       1.6417       1.1138
   1422.80164       1.3753       1.1989    1422.80164       1.3753       1.1996
   1422.78638       1.4517       1.1420    1422.78638       1.4516       1.1426
   1422.77112       1.3236       0.6342    1422.77112       1.3236       0.6345
   1422.75586       1.1422       0.9850    1422.75586       1.1422       0.9856
   1422.74060       1.4660       0.5633    1422.74060       1.4659       0.5636
   1422.72534       1.3680       0.4484    1422.72534       1.3679       0.4487
   1422.71008       1.1406       0.5570    1422.71008       1.1406       0.5573
   1422.69482       1.2385       0.5667    1422.69482       1.2384       0.5670
   1422.67957       1.2042       0.7483    1422.67957       1.2042       0.7487
   1422.66431       1.1070       0.7218    1422.66431       1.1069       0.7222
   1422.64905       0.9797       0.6018    1422.64905       0.9797       0.6021
   1422.63379       1.1448       0.8565    1422.63379       1.1447       0.8570
   1422.61853       0.9478       0.6585    1422.61853       0.9478       0.6588
   1422.60327       1.2723       0.7330    1422.60327       1.2723       0.7334
   1422.58801       1.1585       0.7978    1422.58801       1.1584       0.7982
   1422.57275       1.2429       0.7049    1422.57275       1.2429       0.7053
   1422.55750       1.2565       0.6075    1422.55750       1.2565       0.6078
   1422.54224       0.9883       0.8491    1422.54224       0.9882       0.8496
   1422.52698       0.9651       0.9144    1422.52698       0.9651       0.9149
   1422.51172       0.9359       0.8075    1422.51172       0.9359       0.8080
   1422.49646       0.9848       0.8783    1422.49646       0.9848       0.8788
   1422.48120       1.2116       0.8111    1422.48120       1.2116       0.8116
   1422.46594       1.0498       0.8295    1422.46594       1.0498       0.8299
   1422.45068       1.0554       0.8273    1422.45068       1.0554       0.8278
   1422.43542       1.1396       0.8066    1422.43542       1.1396       0.8070
   1422.42017       1.0825       0.6177    1422.42017       1.0824       0.6180
   1422.40491       0.9458       0.9889    1422.40491       0.9458       0.9894
   1422.38965       1.0194       0.6878    1422.38965       1.0194       0.6882
   1422.37439       0.9562       0.8081    1422.37439       0.9562       0.8086
   1422.35913       1.0285       0.7548    1422.35913       1.0284       0.7552
   1422.34387       1.1706       0.7088    1422.34387       1.1706       0.7092
   1422.32861       0.9981       0.6548    1422.32861       0.9981       0.6551
   1422.31335       1.1508       0.7355    1422.31335       1.1508       0.7359
   1422.29810       1.2159       0.8710    1422.29810       1.2159       0.8714
   1422.28284       1.1191       0.7848    1422.28284       1.1190       0.7852
   1422.26758       1.3802       0.9698    1422.26758       1.3801       0.9704
   1422.25232       1.0148       0.7614    1422.25232       1.0148       0.7619
   1422.23706       1.0003       0.7237    1422.23706       1.0003       0.7241
   1422.22180       0.9447       0.8310    1422.22180       0.9446       0.8314
   1422.20654       1.2179       0.6473    1422.20654       1.2178       0.6477
   1422.19128       1.3298       0.6463    1422.19128       1.3298       0.6466
   1422.17603       1.0791       0.9070    1422.17603       1.0790       0.9075
   1422.16077       0.9221       0.6697    1422.16077       0.9221       0.6700
   1422.14551       1.0822       0.6836    1422.14551       1.0822       0.6840
   1422.13025       1.0222       0.4311    1422.13025       1.0222       0.4313
   1422.11499       0.8757       0.8177    1422.11499       0.8757       0.8181
   1422.09973       0.9567       0.4687    1422.09973       0.9567       0.4690
   1422.08447       0.9404       0.8366    1422.08447       0.9404       0.8370
   1422.06921       1.1033       0.5348    1422.06921       1.1032       0.5351
   1422.05396       0.8752       0.9780    1422.05396       0.8752       0.9785
   1422.03870       1.1332       0.8568    1422.03870       1.1332       0.8573
   1422.02344       0.8502       0.7515    1422.02344       0.8501       0.7519
   1422.00818       1.1014       0.7779    1422.00818       1.1014       0.7783
   1421.99292       0.9813       0.9728    1421.99292       0.9813       0.9733
   1421.97766       0.9860       0.4620    1421.97766       0.9860       0.4622
   1421.96240       1.0340       0.7426    1421.96240       1.0339       0.7430
   1421.94714       1.0705       0.9267    1421.94714       1.0705       0.9272
   1421.93188       1.1881       0.5571    1421.93188       1.1880       0.5574
   1421.91663       1.0207       0.8019    1421.91663       1.0206       0.8023
   1421.90137       0.8220       0.9014    1421.90137       0.8219       0.9019
   1421.88611       1.1040       0.6886    1421.88611       1.1040       0.6890
   1421.87085       0.6929       0.9307    1421.87085       0.6929       0.9313
   1421.85559       0.8256       0.6762    1421.85559       0.8256       0.6766
   1421.84033       1.2812       0.7149    1421.84033       1.2812       0.7152
   1421.82507       0.9653       0.5990    1421.82507       0.9653       0.5993
   1421.80981       1.0302       0.5612    1421.80981       1.0302       0.5615
   1421.79456       1.0505       0.7859    1421.79456       1.0504       0.7863
   1421.77930       0.9370       0.8396    1421.77930       0.9369       0.8401
   1421.76404       1.0094       0.8376    1421.76404       1.0094       0.8381
   1421.74878       0.9996       0.7849    1421.74878       0.9996       0.7853
   1421.73352       0.9675       0.7945    1421.73352       0.9675       0.7949
   1421.71826       0.8979       0.5822    1421.71826       0.8978       0.5825
   1421.70300       1.0701       0.5940    1421.70300       1.0700       0.5943
   1421.68774       1.0272       0.8184    1421.68774       1.0272       0.8188
   1421.67249       0.8772       0.8862    1421.67249       0.8771       0.8867
   1421.65723       1.0573       0.6924    1421.65723       1.0573       0.6928
   1421.64197       0.9894       1.0081    1421.64197       0.9894       1.0086
   1421.62671       0.9109       0.8198    1421.62671       0.9109       0.8203
   1421.61145       1.0904       0.9843    1421.61145       1.0903       0.9848
   1421.59619       1.2253       0.6633    1421.59619       1.2252       0.6637
   1421.58093       0.9982       0.7828    1421.58093       0.9982       0.7832
   1421.56567       0.9767       0.7582    1421.56567       0.9767       0.7586
   1421.55042       0.9849       0.9709    1421.55042       0.9849       0.9714
   1421.53516       0.9875       0.8160    1421.53516       0.9875       0.8164
   1421.51990       0.8613       0.8865    1421.51990       0.8613       0.8870
   1421.50464       1.0553       0.8526    1421.50464       1.0553       0.8530
   1421.48938       0.9679       0.7913    1421.48938       0.9678       0.7918
   1421.47412       1.0990       0.9010    1421.47412       1.0989       0.9015
   1421.45886       1.1822       0.6579    1421.45886       1.1821       0.6583
   1421.44360       0.8225       0.9767    1421.44360       0.8225       0.9773
   1421.42834       1.0991       1.0495    1421.42834       1.0990       1.0501
   1421.41309       0.9542       1.0050    1421.41309       0.9542       1.0055
   1421.39783       1.0646       1.1161    1421.39783       1.0645       1.1167
   1421.38257       0.8990       0.9296    1421.38257       0.8989       0.9301
   1421.36731       0.9042       1.1767    1421.36731       0.9042       1.1774
   1421.35205       0.7371       0.6008    1421.35205       0.7370       0.6012
   1421.33679       0.8913       0.5446    1421.33679       0.8913       0.5449
   1421.32153       0.9904       0.7443    1421.32153       0.9904       0.7447
   1421.30627       0.9778       0.8904    1421.30627       0.9778       0.8908
   1421.29102       1.0100       0.6495    1421.29102       1.0100       0.6498
   1421.27576       0.8095       0.7981    1421.27576       0.8095       0.7985
   1421.26050       1.0758       1.0413    1421.26050       1.0757       1.0419
   1421.24524       0.9089       0.9182    1421.24524       0.9089       0.9187
   1421.22998       1.0867       0.5747    1421.22998       1.0866       0.5750
   1421.21472       0.9670       1.0439    1421.21472       0.9669       1.0445
   1421.19946       0.7966       1.0845    1421.19946       0.7966       1.0851
   1421.18420       0.9336       0.7177    1421.18420       0.9336       0.7181
   1421.16895       1.0683       0.5054    1421.16895       1.0682       0.5057
   1421.15369       0.9200       0.7540    1421.15369       0.9199       0.7544
   1421.13843       1.0864       0.8361    1421.13843       1.0863       0.8365
   1421.12317       0.8618       0.9336    1421.12317       0.8617       0.9341
   1421.10791       1.1623       0.9861    1421.10791       1.1623       0.9867
   1421.09265       0.9533       0.8552    1421.09265       0.9533       0.8556
   1421.07739       1.0105       1.0073    1421.07739       1.0105       1.0078
   1421.06213       0.9509       1.0032    1421.06213       0.9509       1.0038
   1421.04688       0.8324       1.1841    1421.04688       0.8324       1.1848
   1421.03162       0.8066       0.4782    1421.03162       0.8065       0.4784
   1421.01636       0.8596       0.9371    1421.01636       0.8595       0.9376
   1421.00110       1.0188       0.7849    1421.00110       1.0187       0.7853
   1420.98584       0.8885       0.6867    1420.98584       0.8884       0.6871
   1420.97058       0.8405       1.0431    1420.97058       0.8404       1.0437
   1420.95532       0.9027       1.1799    1420.95532       0.9026       1.1805
   1420.94006       1.0847       0.9384    1420.94006       1.0846       0.9390
   1420.92480       0.9998       0.9091    1420.92480       0.9998       0.9096
   1420.90955       0.9755       0.8974    1420.90955       0.9755       0.8979
   1420.89429       0.9426       0.7471    1420.89429       0.9425       0.7475
   1420.87903       1.0476       0.7416    1420.87903       1.0476       0.7420
   1420.86377       0.9787       1.0369    1420.86377       0.9787       1.0375
   1420.84851       0.9582       1.0770    1420.84851       0.9581       1.0776
   1420.83325       1.1309       1.5065    1420.83325       1.1309       1.5074
   1420.81799       0.7685       1.0023    1420.81799       0.7685       1.0029
   1420.80273       1.2111       1.0096    1420.80273       1.2110       1.0101
   1420.78748       1.3534       1.1939    1420.78748       1.3533       1.1945
   1420.77222       1.3591       1.5033    1420.77222       1.3591       1.5041
   1420.75696       1.6939       1.4921    1420.75696       1.6939       1.4930
   1420.74170       1.9018       1.8976    1420.74170       1.9018       1.8986
   1420.72644       1.5809       1.5023    1420.72644       1.5808       1.5031
   1420.71118       1.5678       1.6441    1420.71118       1.5678       1.6450
   1420.69592       1.4776       1.2759    1420.69592       1.4776       1.2766
   1420.68066       0.9538       1.1166    1420.68066       0.9538       1.1172
   1420.66541       0.5754       0.0837    1420.66541       0.5754       0.0838
   1420.65015       0.2186       0.4524    1420.65015       0.2186       0.4526
   1420.63489       0.1343      -0.1746    1420.63489       0.1343      -0.1747
   1420.61963      -0.1872       0.2547    1420.61963      -0.1872       0.2548
   1420.60437       0.2818       0.5632    1420.60437       0.2818       0.5635
   1420.58911       0.4812       0.8365    1420.58911       0.4812       0.8369
   1420.57385      -0.3940       0.0352    1420.57385      -0.3940       0.0352
   1420.55859      -1.2761      -1.3852    1420.55859      -1.2760      -1.3859
   1420.54333      -0.6653      -0.9697    1420.54333      -0.6653      -0.9703
   1420.52808      -3.2667      -3.5578    1420.52808      -3.2666      -3.5597
   1420.51282      -0.2550      -0.3715    1420.51282      -0.2550      -0.3717
   1420.49756       4.5198       4.6031    1420.49756       4.5196       4.6056
   1420.48230       0.8904       1.5890    1420.48230       0.8904       1.5898
   1420.46704       0.3110       0.2622    1420.46704       0.3110       0.2624
   1420.45178       0.2912       0.4785    1420.45178       0.2912       0.4788
   1420.43652       0.7771       1.0405    1420.43652       0.7771       1.0411
   1420.42126       0.7740       0.8664    1420.42126       0.7739       0.8668
   1420.40601       0.5205       0.8285    1420.40601       0.5205       0.8289
   1420.39075       0.7805       0.8444    1420.39075       0.7805       0.8448
   1420.37549       0.8783       0.8471    1420.37549       0.8783       0.8476
   1420.36023       0.9025       1.1090    1420.36023       0.9024       1.1096
   1420.34497       0.5550       0.8090    1420.34497       0.5550       0.8094
   1420.32971       0.8470       1.1211    1420.32971       0.8470       1.1217
   1420.31445       0.8600       1.2377    1420.31445       0.8599       1.2384
   1420.29919       0.7715       1.2379    1420.29919       0.7715       1.2386
   1420.28394       0.7450       1.4626    1420.28394       0.7450       1.4634
   1420.26868       1.0720       1.4209    1420.26868       1.0719       1.4216
   1420.25342       0.8282       1.1142    1420.25342       0.8282       1.1148
   1420.23816       0.9943       1.3641    1420.23816       0.9943       1.3649
   1420.22290       0.8165       0.9379    1420.22290       0.8164       0.9385
   1420.20764       0.8032       0.8176    1420.20764       0.8032       0.8180
   1420.19238       0.6746       1.2304    1420.19238       0.6746       1.2311
   1420.17712       0.8646       1.2158    1420.17712       0.8646       1.2164
   1420.16187       0.8827       0.8881    1420.16187       0.8827       0.8886
   1420.14661       0.6211       0.7015    1420.14661       0.6210       0.7019
   1420.13135       0.6824       1.3802    1420.13135       0.6824       1.3809
   1420.11609       0.8181       0.9831    1420.11609       0.8180       0.9837
   1420.10083       0.7429       0.5940    1420.10083       0.7428       0.5943
   1420.08557       0.5363       1.0091    1420.08557       0.5363       1.0097
   1420.07031       0.7568       0.8821    1420.07031       0.7567       0.8826
   1420.05505       0.7841       1.3156    1420.05505       0.7841       1.3163
   1420.03979       0.8200       1.0923    1420.03979       0.8199       1.0929
   1420.02454       0.6511       1.3682    1420.02454       0.6511       1.3689
   1420.00928       0.6691       1.1485    1420.00928       0.6690       1.1491
   1419.99402       0.6812       1.2087    1419.99402       0.6812       1.2094
   1419.97876       0.6995       0.8062    1419.97876       0.6995       0.8066
   1419.96350       0.7169       1.0535    1419.96350       0.7169       1.0541
   1419.94824       0.6488       1.0111    1419.94824       0.6488       1.0117
   1419.93298       0.5446       0.9000    1419.93298       0.5446       0.9005
   1419.91772       0.7110       1.0012    1419.91772       0.7110       1.0018
   1419.90247       0.4348       1.2597    1419.90247       0.4348       1.2603
   1419.88721       0.7717       1.6093    1419.88721       0.7717       1.6102
   1419.87195       0.7518       1.1616    1419.87195       0.7518       1.1622
   1419.85669       0.7807       1.1883    1419.85669       0.7807       1.1890
   1419.84143       0.8481       1.2208    1419.84143       0.8481       1.2214
   1419.82617       0.8022       1.4713    1419.82617       0.8021       1.4721
   1419.81091       0.4932       1.1679    1419.81091       0.4932       1.1685
   1419.79565       0.7839       0.9399    1419.79565       0.7839       0.9404
   1419.78040       0.8840       1.0920    1419.78040       0.8840       1.0926
   1419.76514       0.6917       1.3747    1419.76514       0.6917       1.3755
   1419.74988       0.6117       1.1033    1419.74988       0.6117       1.1039
   1419.73462       0.6681       1.0465    1419.73462       0.6681       1.0470
   1419.71936       0.5940       1.1219    1419.71936       0.5940       1.1225
   1419.70410       0.5741       1.3064    1419.70410       0.5741       1.3071
   1419.68884       0.5859       1.3591    1419.68884       0.5858       1.3599
   1419.67358       0.5574       1.1921    1419.67358       0.5574       1.1927
   1419.65833       0.7431       1.4201    1419.65833       0.7431       1.4209
   1419.64307       0.6641       1.1905    1419.64307       0.6641       1.1912
   1419.62781       0.6466       1.2168    1419.62781       0.6466       1.2175
   1419.61255       0.8075       1.5090    1419.61255       0.8074       1.5098
   1419.59729       0.4897       1.4588    1419.59729       0.4897       1.4596
   1419.58203       0.5287       1.1091    1419.58203       0.5287       1.1097
   1419.56677       0.6392       1.4957    1419.56677       0.6392       1.4965
   1419.55151       0.6295       1.4014    1419.55151       0.6295       1.4021
   1419.53625       0.5346       1.2270    1419.53625       0.5346       1.2277
   1419.52100       0.5537       1.1824    1419.52100       0.5537       1.1830
   1419.50574       0.6735       0.9896    1419.50574       0.6735       0.9901
   1419.49048       0.8241       1.0981    1419.49048       0.8241       1.0987
   1419.47522       0.6325       1.1835    1419.47522       0.6325       1.1842
   1419.45996       0.6023       1.5099    1419.45996       0.6023       1.5107
   1419.44470       0.4385       1.5413    1419.44470       0.4385       1.5421
   1419.42944       0.4540       1.3823    1419.42944       0.4540       1.3830
   1419.41418       0.5264       1.2933    1419.41418       0.5264       1.2940
   1419.39893       0.5558       1.3805    1419.39893       0.5557       1.3812
   1419.38367       0.5329       1.4568    1419.38367       0.5329       1.4576
   1419.36841       0.5342       1.0614    1419.36841       0.5342       1.0619
   1419.35315       0.5413       1.5656    1419.35315       0.5413       1.5665
   1419.33789       0.5226       1.5835    1419.33789       0.5226       1.5843
   1419.32263       0.4116       1.2168    1419.32263       0.4116       1.2175
   1419.30737       0.6258       1.0633    1419.30737       0.6258       1.0639
   1419.29211       0.5790       1.1995    1419.29211       0.5789       1.2001
   1419.27686       0.7355       1.1303    1419.27686       0.7354       1.1309
   1419.26160       0.5495       1.1357    1419.26160       0.5495       1.1363
   1419.24634       0.7091       1.1926    1419.24634       0.7091       1.1933
   1419.23108       0.4739       1.2903    1419.23108       0.4739       1.2910
   1419.21582       0.6917       1.6120    1419.21582       0.6916       1.6129
   1419.20056       0.4988       1.5145    1419.20056       0.4988       1.5153
   1419.18530       0.4533       1.0917    1419.18530       0.4533       1.0923
   1419.17004       0.5262       1.2504    1419.17004       0.5261       1.2511
   1419.15479       0.5437       1.2803    1419.15479       0.5437       1.2810
   1419.13953       0.6492       1.6465    1419.13953       0.6492       1.6474
   1419.12427       0.4598       1.6882    1419.12427       0.4597       1.6891
   1419.10901       0.4931       0.9636    1419.10901       0.4931       0.9641
   1419.09375       0.6454       1.2736    1419.09375       0.6454       1.2743
   1419.07849       0.5932       1.5886    1419.07849       0.5932       1.5894
   1419.06323       0.4635       1.1682    1419.06323       0.4634       1.1689
   1419.04797       0.3719       1.1476    1419.04797       0.3719       1.1482
   1419.03271       0.6336       1.0040    1419.03271       0.6336       1.0046
   1419.01746       0.5720       1.0192    1419.01746       0.5720       1.0198
   1419.00220       0.5711       1.4334    1419.00220       0.5710       1.4342
   1418.98694       0.4190       1.4959    1418.98694       0.4190       1.4967
   1418.97168       0.5522       1.2809    1418.97168       0.5521       1.2816
   1418.95642       0.3863       1.2318    1418.95642       0.3863       1.2324
   1418.94116       0.5585       1.2434    1418.94116       0.5585       1.2441
   1418.92590       0.4322       1.4324    1418.92590       0.4322       1.4332
   1418.91064       0.6341       1.5696    1418.91064       0.6341       1.5705
   1418.89539       0.3913       1.6175    1418.89539       0.3913       1.6184
   1418.88013       0.2593       1.4762    1418.88013       0.2593       1.4771
   1418.86487       0.4192       1.1555    1418.86487       0.4191       1.1561
   1418.84961       0.3431       1.4703    1418.84961       0.3430       1.4711
   1418.83435       0.3795       1.2498    1418.83435       0.3795       1.2505
   1418.81909       0.5475       1.4879    1418.81909       0.5474       1.4887
   1418.80383       0.4658       1.4082    1418.80383       0.4657       1.4090
   1418.78857       0.6955       1.0888    1418.78857       0.6955       1.0894
   1418.77332       0.4134       1.2222    1418.77332       0.4134       1.2228
   1418.75806       0.4457       1.1760    1418.75806       0.4457       1.1766
   1418.74280       0.5276       1.0908    1418.74280       0.5276       1.0914
   1418.72754       0.5720       1.4191    1418.72754       0.5720       1.4199
   1418.71228       0.3372       1.5872    1418.71228       0.3372       1.5880
   1418.69702       0.4257       1.3746    1418.69702       0.4257       1.3753
   1418.68176       0.3417       1.6557    1418.68176       0.3417       1.6566
   1418.66650       0.4957       1.0778    1418.66650       0.4957       1.0784
   1418.65125       0.3296       1.1026    1418.65125       0.3296       1.1033
   1418.63599       0.4104       1.3976    1418.63599       0.4104       1.3984
   1418.62073       0.5969       1.0598    1418.62073       0.5969       1.0604
   1418.60547       0.3995       1.5972    1418.60547       0.3995       1.5981
   1418.59021       0.5759       1.4995    1418.59021       0.5758       1.5003
   1418.57495       0.5029       1.7633    1418.57495       0.5028       1.7643
   1418.55969       0.3817       1.5709    1418.55969       0.3817       1.5718
   1418.54443       0.3693       1.2382    1418.54443       0.3692       1.2389
   1418.52917       0.4007       1.1630    1418.52917       0.4007       1.1636
   1418.51392       0.2733       1.3753    1418.51392       0.2733       1.3760
   1418.49866       0.2362       1.5066    1418.49866       0.2362       1.5075
   1418.48340       0.5064       1.3483    1418.48340       0.5064       1.3490
   1418.46814       0.3526       1.3555    1418.46814       0.3526       1.3563
   1418.45288       0.5301       1.1016    1418.45288       0.5300       1.1022
   1418.43762       0.4175       1.4503    1418.43762       0.4175       1.4511
   1418.42236       0.3391       1.3855    1418.42236       0.3391       1.3863
   1418.40710       0.4832       1.4427    1418.40710       0.4832       1.4435
   1418.39185       0.3656       1.2814    1418.39185       0.3656       1.2821
   1418.37659       0.5708       1.6050    1418.37659       0.5708       1.6059
   1418.36133       0.7270       1.2634    1418.36133       0.7270       1.2640
   1418.34607       0.5614       1.4628    1418.34607       0.5613       1.4636
   1418.33081       0.5339       1.3601    1418.33081       0.5338       1.3608
   1418.31555       0.3716       1.1446    1418.31555       0.3716       1.1452
   1418.30029       0.4604       1.3979    1418.30029       0.4604       1.3987
   1418.28503       0.6482       1.5994    1418.28503       0.6482       1.6003
   1418.26978       0.5231       1.4276    1418.26978       0.5231       1.4284
   1418.25452       0.4213       1.3404    1418.25452       0.4212       1.3411
   1418.23926       0.5924       1.7402    1418.23926       0.5924       1.7411
   1418.22400       0.4019       1.4040    1418.22400       0.4019       1.4048
   1418.20874       0.4251       1.3140    1418.20874       0.4251       1.3148
   1418.19348       0.3642       1.2942    1418.19348       0.3641       1.2949
   1418.17822       0.2716       1.4298    1418.17822       0.2716       1.4306
   1418.16296       0.4202       1.5900    1418.16296       0.4202       1.5908
   1418.14771       0.4726       1.3622    1418.14771       0.4725       1.3630
   1418.13245       0.3459       1.7658    1418.13245       0.3459       1.7668
   1418.11719       0.5345       0.9758    1418.11719       0.5344       0.9763
   1418.10193       0.5710       1.3664    1418.10193       0.5710       1.3671
   1418.08667       0.5552       1.4028    1418.08667       0.5551       1.4035
   1418.07141       0.4605       1.2294    1418.07141       0.4605       1.2301
   1418.05615       0.5265       1.4611    1418.05615       0.5265       1.4619
   1418.04089       0.2236       1.2205    1418.04089       0.2236       1.2212
   1418.02563       0.5196       1.3534    1418.02563       0.5196       1.3542
   1418.01038       0.4506       1.5319    1418.01038       0.4506       1.5327
   1417.99512       0.7921       1.5650    1417.99512       0.7920       1.5658
   1417.97986       0.6063       1.4368    1417.97986       0.6063       1.4376
   1417.96460       0.3222       1.4959    1417.96460       0.3222       1.4967
   1417.94934       0.2322       1.4319    1417.94934       0.2321       1.4327
   1417.93408       0.4227       1.6652    1417.93408       0.4227       1.6661
   1417.91882       0.3574       1.5241    1417.91882       0.3574       1.5249
   1417.90356       0.5675       1.3493    1417.90356       0.5674       1.3500
   1417.88831       0.4239       1.5241    1417.88831       0.4238       1.5250
   1417.87305       0.5363       1.3850    1417.87305       0.5363       1.3857
   1417.85779       0.6491       1.5191    1417.85779       0.6491       1.5199
   1417.84253       0.3331       1.5236    1417.84253       0.3331       1.5245
   1417.82727       0.4906       1.5791    1417.82727       0.4906       1.5799
   1417.81201       0.3340       1.5337    1417.81201       0.3340       1.5345
   1417.79675       0.3942       1.4631    1417.79675       0.3941       1.4639
   1417.78149       0.3172       1.6094    1417.78149       0.3171       1.6103
   1417.76624       0.5012       1.3588    1417.76624       0.5012       1.3595
   1417.75098       0.5274       1.6362    1417.75098       0.5274       1.6371
   1417.73572       0.7332       1.6788    1417.73572       0.7332       1.6797
   1417.72046       0.4715       1.5215    1417.72046       0.4715       1.5224
   1417.70520       0.4835       1.4406    1417.70520       0.4835       1.4413
   1417.68994       0.6635       1.2763    1417.68994       0.6635       1.2770
   1417.67468       0.4669       1.3686    1417.67468       0.4669       1.3694
   1417.65942       0.4670       1.4191    1417.65942       0.4670       1.4199
   1417.64417       0.5775       1.5512    1417.64417       0.5775       1.5520
   1417.62891       0.6348       1.2452    1417.62891       0.6348       1.2459
   1417.61365       0.6364       1.5519    1417.61365       0.6364       1.5528
   1417.59839       0.5433       1.4246    1417.59839       0.5433       1.4254
   1417.58313       0.2419       1.3316    1417.58313       0.2419       1.3323
   1417.56787       0.6056       1.4309    1417.56787       0.6056       1.4317
   1417.55261       0.6016       1.4362    1417.55261       0.6016       1.4370
   1417.53735       0.6990       1.6064    1417.53735       0.6990       1.6073
   1417.52209       0.4339       1.5347    1417.52209       0.4339       1.5355
   1417.50684       0.4826       1.5707    1417.50684       0.4826       1.5716
   1417.49158       0.2764       1.5856    1417.49158       0.2764       1.5864
   1417.47632       0.3970       1.4272    1417.47632       0.3970       1.4279
   1417.46106       0.4797       1.3058    1417.46106       0.4797       1.3065
   1417.44580       0.6456       1.3329    1417.44580       0.6456       1.3336
   1417.43054       0.4188       1.4229    1417.43054       0.4188       1.4237
   1417.41528       0.5702       1.5712    1417.41528       0.5701       1.5721
   1417.40002       0.2621       1.2922    1417.40002       0.2621       1.2930
   1417.38477       0.2728       1.0878    1417.38477       0.2728       1.0884
   1417.36951       0.5928       1.3476    1417.36951       0.5928       1.3484
   1417.35425       0.5958       1.1167    1417.35425       0.5957       1.1173
   1417.33899       0.4002       1.3111    1417.33899       0.4002       1.3118
   1417.32373       0.6199       1.5996    1417.32373       0.6199       1.6005
   1417.30847       0.7751       1.3104    1417.30847       0.7750       1.3111
   1417.29321       0.4791       1.1786    1417.29321       0.4791       1.1792
   1417.27795       0.5812       1.0905    1417.27795       0.5812       1.0911
   1417.26270       0.5037       1.4223    1417.26270       0.5037       1.4231
   1417.24744       0.6631       1.3193    1417.24744       0.6630       1.3200
   1417.23218       0.6984       1.3541    1417.23218       0.6983       1.3549
   1417.21692       0.7506       1.4157    1417.21692       0.7505       1.4165
   1417.20166       0.5778       1.2486    1417.20166       0.5778       1.2493
   1417.18640       0.6744       1.4905    1417.18640       0.6744       1.4913
   1417.17114       0.5714       1.4230    1417.17114       0.5714       1.4238
   1417.15588       0.4976       1.2267    1417.15588       0.4976       1.2274
   1417.14062       0.9096       1.3589    1417.14062       0.9095       1.3597
   1417.12537       0.9431       1.3071    1417.12537       0.9431       1.3078
   1417.11011       0.6160       1.4149    1417.11011       0.6160       1.4157
   1417.09485       0.5910       1.6637    1417.09485       0.5909       1.6646
   1417.07959       0.4954       1.7315    1417.07959       0.4954       1.7324
   1417.06433       0.5394       1.5908    1417.06433       0.5393       1.5917
   1417.04907       0.7900       1.4280    1417.04907       0.7899       1.4288
   1417.03381       0.5975       1.5963    1417.03381       0.5975       1.5972
   1417.01855       0.8306       1.5058    1417.01855       0.8305       1.5066
   1417.00330       0.7906       1.5557    1417.00330       0.7906       1.5566
   1416.98804       0.8101       1.3754    1416.98804       0.8101       1.3761
   1416.97278       0.8210       1.2581    1416.97278       0.8210       1.2588
   1416.95752       0.5681       0.8264    1416.95752       0.5681       0.8269
   1416.94226       0.4630       1.0176    1416.94226       0.4630       1.0182
   1416.92700       0.8397       1.5871    1416.92700       0.8396       1.5879
   1416.91174       0.7633       1.2509    1416.91174       0.7633       1.2516
   1416.89648       0.6262       1.3425    1416.89648       0.6262       1.3433
   1416.88123       0.6308       1.6526    1416.88123       0.6307       1.6535
   1416.86597       1.0792       1.4503    1416.86597       1.0792       1.4511
   1416.85071       0.7759       1.6245    1416.85071       0.7759       1.6254
   1416.83545       0.7665       1.6045    1416.83545       0.7665       1.6054
   1416.82019       0.9209       1.4647    1416.82019       0.9208       1.4655
   1416.80493       0.6127       1.6437    1416.80493       0.6126       1.6446
   1416.78967       0.6649       1.9919    1416.78967       0.6648       1.9930
   1416.77441       0.7145       1.1918    1416.77441       0.7145       1.1925
   1416.75916       0.8168       1.3354    1416.75916       0.8168       1.3362
   1416.74390       0.7439       1.4737    1416.74390       0.7439       1.4745
   1416.72864       0.7435       1.1472    1416.72864       0.7435       1.1479
   1416.71338       0.9379       1.1188    1416.71338       0.9378       1.1194
   1416.69812       0.5014       1.5534    1416.69812       0.5013       1.5543
   1416.68286       1.0826       1.1920    1416.68286       1.0826       1.1926
   1416.66760       0.5723       1.5699    1416.66760       0.5723       1.5708
   1416.65234       0.8070       1.2727    1416.65234       0.8069       1.2734
   1416.63708       0.6155       1.3738    1416.63708       0.6155       1.3746
   1416.62183       0.8938       1.4244    1416.62183       0.8938       1.4251
   1416.60657       0.8313       1.4398    1416.60657       0.8313       1.4406
   1416.59131       0.7723       1.5950    1416.59131       0.7723       1.5959
   1416.57605       0.8201       1.5976    1416.57605       0.8201       1.5985
   1416.56079       0.5886       1.3907    1416.56079       0.5886       1.3915
   1416.54553       0.7705       1.5162    1416.54553       0.7705       1.5170
   1416.53027       0.8035       1.4634    1416.53027       0.8035       1.4642
   1416.51501       1.0008       1.5083    1416.51501       1.0008       1.5091
   1416.49976       0.8453       1.4144    1416.49976       0.8453       1.4152
   1416.48450       0.9345       0.9146    1416.48450       0.9345       0.9151
   1416.46924       0.9894       1.6451    1416.46924       0.9894       1.6460
   1416.45398       0.8984       1.7381    1416.45398       0.8984       1.7391
   1416.43872       0.7604       1.3952    1416.43872       0.7604       1.3960
   1416.42346       0.9680       1.1384    1416.42346       0.9680       1.1390
   1416.40820       1.0245       1.4513    1416.40820       1.0245       1.4521
   1416.39294       1.0782       1.3682    1416.39294       1.0782       1.3689
   1416.37769       1.2651       1.3825    1416.37769       1.2651       1.3833
   1416.36243       0.9365       1.4807    1416.36243       0.9365       1.4815
   1416.34717       1.0653       1.4254    1416.34717       1.0652       1.4262
   1416.33191       0.8634       1.3217    1416.33191       0.8634       1.3224
   1416.31665       0.9113       1.6295    1416.31665       0.9113       1.6304
   1416.30139       0.9505       1.5871    1416.30139       0.9504       1.5880
   1416.28613       1.0026       1.2975    1416.28613       1.0026       1.2982
   1416.27087       0.8801       1.6137    1416.27087       0.8801       1.6146
   1416.25562       0.9781       1.8734    1416.25562       0.9781       1.8744
   1416.24036       0.9402       1.1741    1416.24036       0.9402       1.1747
   1416.22510       0.8993       1.0791    1416.22510       0.8993       1.0797
   1416.20984       0.8133       1.6124    1416.20984       0.8133       1.6133
   1416.19458       0.6906       1.3301    1416.19458       0.6905       1.3308
   1416.17932       0.5977       1.3789    1416.17932       0.5977       1.3797
   1416.16406       0.7414       1.2598    1416.16406       0.7414       1.2604
   1416.14880       0.7950       1.4522    1416.14880       0.7949       1.4530
   1416.13354       0.8525       1.3312    1416.13354       0.8524       1.3320
   1416.11829       0.7841       1.4579    1416.11829       0.7841       1.4587
   1416.10303       0.8796       1.5120    1416.10303       0.8796       1.5128
   1416.08777       0.8353       1.6206    1416.08777       0.8352       1.6215
   1416.07251       0.7317       1.2387    1416.07251       0.7317       1.2394
   1416.05725       1.0787       1.4237    1416.05725       1.0786       1.4245
   1416.04199       1.2517       1.2622    1416.04199       1.2516       1.2629
   1416.02673       0.9059       1.5325    1416.02673       0.9059       1.5334
   1416.01147       0.8834       1.3594    1416.01147       0.8833       1.3601
   1415.99622       0.8554       1.1506    1415.99622       0.8554       1.1512
