#     FILENAME=Skynet_59472_ngc3976_group2_62119_10949.A.onoff.cal.txt
#     BASENAME=Skynet_59472_ngc3976_group2_62119_10949
#      CONTROL=SKYNET
#     PROJCODE=Skynet_59472_ngc3976_group2_62119
#     DATAROOT=/raid/scratch/cyborg/SkynetData
#      DATADIR=/raid/scratch/cyborg
#     DATADIR2=/raid/scratch/cyborg/SkynetData/Skynet_59472_ngc3976_group2_621
#     SCANNAME=2019_06_26_10
#     SRC_NAME=ngc3976_group2
#     OBSERVER=sdss2_39397
#     DATE_OBS=2021-09-15T20:02:59.190
#        OBSID=62119
#      SCANNUM=10949
#          MJD=59472.8354073
#          UTC=72179
#     SCANTYPE=onoff
#     DATAMODE=HIRES
#     RECEIVER=Rx1_2
#      OBSFREQ=1409.7000
# Actual_FREQ1=1653.7000,
# Actual_FREQ2=1403.7000
#    LO1Tuning=6978.7000
#     RFFILTER=1300_1800
#        OBSBW=-15.6250
#     EFFBANDW=15.6250
#        NCHAN=1024
#    STARTCHAN=51
#     STOPCHAN=972
#         TINT=0.3000
#         TBIN=0.00419430
#       ACCLEN=2048 
#     DURATION=602.10
#     EXPOSURE=581.92
#        FOCUS=37.027
#       RA,DEC=11:56:09.57, 06:44:57.49
#      RA(deg)=180.49900
#     DEC(deg)=6.74924
#   WIDTH(deg)=3.0239x0.0390
#    AZIM(deg)=234.9069
#    ELEV(deg)=44.1079
#     COORDREF=RA_DEC_
#         HREF=178.9890
#         VREF=6.7492
#      RADESYS=FK5
#       OFFSYS=RADEC
#      EQUINOX=2000.00
#     IFATTENS=31.00, 16.00
#   BALANCELEV=1.200 
#   POWER_XLYR=[1.32, 1.18] 
#       VELDEF=RADI-OBS 
#     VELOCITY=0.000 
#         NPOL=2 
#      POLMODE=Linear 
#      POLTYPE=XXYY 
#      WARNING=None 
#     NOISECAL=HI 
#       PRECAL=2 
#      POSTCAL=2 
#     CRYOTEMP=17 
#      BOXTEMP=29 
#         TSYS=XX1:59.30, YY1:61.26
#         TSYS=XX2:67.97, YY2:106.71
#         TCAL=XX1:9.42, YY1:11.79
#         TCAL=XX2:9.16, YY2:9.99
# Calibrated spectra: Tsys*(ON-OFF)/OFF 
#                
#                
#Freq1(MHz)         XX1          YY1   Freq2(MHz)       XX2         YY2 
   1660.73430       6.3750       4.4109    1410.73430       3.7399       1.0998
   1660.71904       6.3288       4.4355    1410.71904       3.8901       1.1781
   1660.70378       6.4073       4.5110    1410.70378       3.7888       1.2517
   1660.68853       6.3624       4.5716    1410.68853       3.7754       1.2238
   1660.67327       6.3644       4.4902    1410.67327       3.6841       1.3274
   1660.65801       6.3825       4.5932    1410.65801       3.7321       1.2116
   1660.64275       6.3774       4.5312    1410.64275       3.7304       1.0218
   1660.62749       6.4233       4.5051    1410.62749       3.7927       1.1747
   1660.61223       6.3834       4.5747    1410.61223       3.8079       1.2078
   1660.59697       6.3782       4.4348    1410.59697       3.7987       1.3100
   1660.58171       6.3455       4.5470    1410.58171       3.8430       1.3529
   1660.56646       6.4185       4.6373    1410.56646       3.7993       1.3986
   1660.55120       6.4383       4.4908    1410.55120       3.7752       1.2707
   1660.53594      14.8250      33.2335    1410.53594       3.8250       1.3405
   1660.52068       6.0242       4.1824    1410.52068       3.7660       1.2112
   1660.50542       5.9998       4.1786    1410.50542       3.8631       1.2632
   1660.49016       6.0107       4.2652    1410.49016       3.8641       1.3680
   1660.47490       6.3693       4.5383    1410.47490       3.8023       1.4236
   1660.45964       6.3508       4.6324    1410.45964       3.8304       1.3632
   1660.44438       6.4796       4.5327    1410.44438       3.8455       1.3812
   1660.42913       6.3582       4.5430    1410.42913       3.8268       1.4626
   1660.41387       6.4311       4.5153    1410.41387       3.7330       1.4719
   1660.39861       6.5293       4.5429    1410.39861       3.9566       1.5557
   1660.38335       6.4534       4.5843    1410.38335       3.8159       1.4625
   1660.36809       6.4603       4.5201    1410.36809       3.8884       1.4596
   1660.35283       6.4176       4.4751    1410.35283       3.9259       1.5320
   1660.33757       6.4884       4.5598    1410.33757       3.9552       1.6204
   1660.32231       6.4225       4.5576    1410.32231       3.8534       1.4936
   1660.30706       6.4232       4.5613    1410.30706       3.8549       1.5919
   1660.29180       6.4850       4.5417    1410.29180       3.8850       1.5421
   1660.27654       6.3534       4.5685    1410.27654       4.0453       1.5292
   1660.26128       6.3968       4.5825    1410.26128       3.8730       1.5412
   1660.24602       6.4876       4.5783    1410.24602       3.9242       1.6622
   1660.23076       6.5150       4.5860    1410.23076       3.9953       1.6605
   1660.21550       6.4408       4.5943    1410.21550       3.9797       1.7603
   1660.20024       6.4919       4.5759    1410.20024       3.9865       1.6936
   1660.18499       6.4700       4.4971    1410.18499       3.9638       1.5981
   1660.16973       6.4557       4.5960    1410.16973       4.0120       1.8156
   1660.15447       6.4884       4.5503    1410.15447       3.9804       1.7837
   1660.13921       6.3216       4.5688    1410.13921       4.1180       1.7421
   1660.12395       6.3313       4.6603    1410.12395       4.0566       1.7564
   1660.10869       6.4566       4.5382    1410.10869       4.1151       1.8256
   1660.09343       6.4677       4.5640    1410.09343       4.0476       1.8140
   1660.07817       6.5043       4.4978    1410.07817       4.0156       1.8487
   1660.06292       6.3666       4.6392    1410.06292       4.0623       1.8507
   1660.04766      13.4137      29.7600    1410.04766       4.0407       1.7752
   1660.03240       6.1019       4.2826    1410.03240       4.2076       1.8391
   1660.01714       6.2002       4.3686    1410.01714       4.1514       1.8217
   1660.00188       6.0925       4.2355    1410.00188       4.1198       1.9903
   1659.98662       6.4525       4.5692    1409.98662       4.1175       2.0452
   1659.97136       6.4571       4.5778    1409.97136       4.1414       1.9526
   1659.95610       6.4707       4.5759    1409.95610       4.1671       2.0583
   1659.94084       6.3902       4.5606    1409.94084       4.1543       2.0550
   1659.92559       6.3673       4.6095    1409.92559       4.1683       1.9599
   1659.91033       6.4600       4.5329    1409.91033       4.1199       2.1103
   1659.89507       6.4640       4.5563    1409.89507       4.2254       2.0878
   1659.87981       6.4264       4.4190    1409.87981       4.2598       2.0641
   1659.86455       6.4623       4.5401    1409.86455       4.2381       2.0887
   1659.84929       6.4739       4.5898    1409.84929       4.3102       2.0539
   1659.83403       6.5073       4.5356    1409.83403       4.3029       1.9502
   1659.81877       6.4464       4.5605    1409.81877       4.1905       2.1780
   1659.80352       6.4495       4.5561    1409.80352       4.2706       2.1217
   1659.78826       6.4329       4.4932    1409.78826       4.3973       2.2958
   1659.77300       6.4237       4.6001    1409.77300       4.3017       2.2501
   1659.75774       6.4344       4.4576    1409.75774       4.3338       2.2711
   1659.74248       6.4669       4.4368    1409.74248       4.2911       2.3435
   1659.72722       6.4356       4.4383    1409.72722       4.3093       2.2043
   1659.71196       6.4441       4.4983    1409.71196       4.3745       2.1881
   1659.69670       6.4358       4.4330    1409.69670       4.3941       2.2920
   1659.68145       6.5116       4.5602    1409.68145       4.3399       2.3608
   1659.66619       6.5163       4.4857    1409.66619       4.4029       2.4176
   1659.65093       6.5002       4.4873    1409.65093       4.4496       2.4229
   1659.63567       6.4469       4.4751    1409.63567       4.4246       2.3607
   1659.62041       6.4345       4.5195    1409.62041       4.3092       2.3970
   1659.60515       6.4349       4.4310    1409.60515       4.4663       2.5027
   1659.58989       6.3605       4.4678    1409.58989       4.4908       2.5128
   1659.57463       6.3490       4.4511    1409.57463       4.4115       2.3891
   1659.55937      12.0118      25.5622    1409.55938       4.5432       2.4601
   1659.54412       6.1166       4.2932    1409.54412       4.5882       2.4918
   1659.52886       6.1726       4.2722    1409.52886       4.5897       2.5976
   1659.51360       6.2032       4.2615    1409.51360       4.4160       2.5643
   1659.49834       6.3951       4.4245    1409.49834       4.4724       2.6231
   1659.48308       6.4352       4.3570    1409.48308       4.4961       2.7048
   1659.46782       6.3890       4.3651    1409.46782       4.5911       2.6098
   1659.45256       6.3622       4.4669    1409.45256       4.5548       2.5508
   1659.43730       6.3707       4.3553    1409.43730       4.6448       2.7049
   1659.42205       6.3427       4.3940    1409.42205       4.5484       2.6353
   1659.40679       6.3458       4.4325    1409.40679       4.6962       2.5860
   1659.39153       6.4042       4.3698    1409.39153       4.6237       2.6868
   1659.37627       6.3309       4.3389    1409.37627       4.7450       2.7452
   1659.36101       6.4341       4.3406    1409.36101       4.6308       2.7631
   1659.34575       6.3606       4.3409    1409.34575       4.6502       2.7091
   1659.33049       6.2927       4.3772    1409.33049       4.6608       2.8637
   1659.31523       6.3286       4.3072    1409.31523       4.6322       2.7595
   1659.29998       6.3028       4.3171    1409.29998       4.7056       2.9177
   1659.28472       6.3156       4.2991    1409.28472       4.7309       2.7802
   1659.26946       6.2907       4.2880    1409.26946       4.6816       2.9618
   1659.25420       6.2802       4.2269    1409.25420       4.7615       2.9564
   1659.23894       6.3427       4.2137    1409.23894       4.7110       2.8662
   1659.22368       6.2850       4.2191    1409.22368       4.7291       2.9270
   1659.20842       6.2785       4.2674    1409.20842       4.7517       2.9775
   1659.19316       6.3675       4.2611    1409.19316       4.7931       3.0012
   1659.17791       6.3303       4.2113    1409.17791       4.7757       2.8487
   1659.16265       6.2275       4.2125    1409.16265       4.8261       3.0044
   1659.14739       6.2437       4.2319    1409.14739       4.7990       3.0308
   1659.13213       6.3415       4.1827    1409.13213       4.8775       3.0607
   1659.11687       6.2167       4.2796    1409.11687       4.8567       3.0416
   1659.10161       6.2501       4.0507    1409.10161       4.8913       3.1658
   1659.08635       6.2908       4.1272    1409.08635       4.8598       3.1893
   1659.07109      11.0325      23.2871    1409.07109       4.8912       3.1897
   1659.05583       6.1441       4.1066    1409.05583       4.9275       3.1744
   1659.04058       6.1465       4.0033    1409.04058       4.9503       3.2602
   1659.02532       6.1205       4.0826    1409.02532       4.8229       3.7394
   1659.01006       6.1899       4.0349    1409.01006       4.8478       3.2217
   1658.99480       6.2027       4.0303    1408.99480       4.9595       3.1369
   1658.97954       6.1727       4.0759    1408.97954       4.8795       3.3246
   1658.96428       6.1899       4.0563    1408.96428       4.9322       3.3160
   1658.94902       6.2324       4.0554    1408.94902       4.9593       3.4354
   1658.93376       6.0996       4.0745    1408.93376       5.0830       3.3246
   1658.91851       6.2094       4.0280    1408.91851       4.9686       3.3094
   1658.90325       6.1214       3.9850    1408.90325       4.9813       3.3935
   1658.88799       6.1210       4.0289    1408.88799       4.9991       3.3335
   1658.87273       6.1141       3.9213    1408.87273       5.0382       3.3276
   1658.85747       6.1668       3.9399    1408.85747       5.0559       3.4453
   1658.84221       6.0994       3.9502    1408.84221       5.0229       3.4667
   1658.82695       6.1295       3.9639    1408.82695       5.0542       3.6078
   1658.81169       6.1476       3.9152    1408.81169       5.1140       3.6210
   1658.79644       6.0572       3.9186    1408.79644       5.0948       3.4175
   1658.78118       6.0288       3.8563    1408.78118       5.1646       3.6330
   1658.76592       6.0508       3.9534    1408.76592       5.1026       3.5788
   1658.75066       6.0238       3.8559    1408.75066       5.1797       3.6143
   1658.73540       5.9797       3.8568    1408.73540       5.1643       3.6985
   1658.72014       6.0654       3.8087    1408.72014       5.1727       3.6665
   1658.70488       6.0272       3.8317    1408.70488       5.1556       3.6603
   1658.68962       6.0275       3.7993    1408.68962       5.1287       3.7781
   1658.67437       6.0293       3.7751    1408.67437       5.1074       3.7010
   1658.65911       6.0029       3.8122    1408.65911       5.2066       3.7420
   1658.64385       5.9988       3.7363    1408.64385       5.2098       3.7564
   1658.62859       6.0008       3.7207    1408.62859       5.1515       4.0002
   1658.61333       5.9310       3.7427    1408.61333       5.2632       3.8341
   1658.59807       5.8893       3.6888    1408.59807       5.2058       3.8239
   1658.58281      10.1286      22.4532    1408.58281       5.2715       3.8938
   1658.56755       5.9316       3.7016    1408.56755       5.2349       3.9067
   1658.55229       5.9246       3.6648    1408.55229       5.2214       3.8775
   1658.53704       5.9350       3.6763    1408.53704       5.2381       3.9115
   1658.52178       5.9351       3.6995    1408.52178       5.2701       3.9789
   1658.50652       5.9391       3.6509    1408.50652       5.2635       4.0949
   1658.49126       5.9647       3.6606    1408.49126       5.2218       4.1278
   1658.47600       5.8690       3.6601    1408.47600       5.1912       4.1162
   1658.46074       5.8767       3.6215    1408.46074       5.2424       4.1413
   1658.44548       5.8961       3.6075    1408.44548       5.3025       4.0166
   1658.43022       5.8254       3.5840    1408.43022       5.2957       4.1308
   1658.41497       5.8982       3.5975    1408.41497       5.3039       4.0906
   1658.39971       5.9302       3.5412    1408.39971       5.3085       4.1669
   1658.38445       5.7961       3.4815    1408.38445       5.2948       4.1778
   1658.36919       5.8602       3.5614    1408.36919       5.3021       4.3584
   1658.35393       5.8400       3.5076    1408.35393       5.3366       4.2824
   1658.33867       5.8863       3.5095    1408.33867       5.3641       4.4296
   1658.32341       5.7967       3.3852    1408.32341       5.4049       4.3785
   1658.30815       5.8706       3.3701    1408.30815       5.3967       4.2783
   1658.29290       5.7433       3.4320    1408.29290       5.2999       4.3346
   1658.27764       5.7290       3.3888    1408.27764       5.3440       4.3628
   1658.26238       5.7659       3.4375    1408.26238       5.4331       4.4600
   1658.24712       5.6702       3.3468    1408.24712       5.3725       4.5018
   1658.23186       5.7694       3.4277    1408.23186       5.4344       4.4879
   1658.21660       5.7883       3.3817    1408.21660       5.4078       4.5565
   1658.20134       5.7152       3.3328    1408.20134       5.4574       4.4860
   1658.18608       5.7283       3.2744    1408.18608       5.4279       4.5862
   1658.17083       5.7541       3.2492    1408.17083       5.4713       4.5807
   1658.15557       5.7192       3.2594    1408.15557       5.4570       4.5569
   1658.14031       5.7084       3.1597    1408.14031       5.4455       4.5574
   1658.12505       5.7488       3.1996    1408.12505       5.4171       4.6445
   1658.10979       5.7071       3.1447    1408.10979       5.4997       4.6732
   1658.09453       9.0221      22.0104    1408.09453       5.4777       4.6804
   1658.07927       5.6355       3.2280    1408.07927       5.4769       4.7279
   1658.06401       5.6477       3.1957    1408.06401       5.4908       4.7107
   1658.04875       5.5823       3.2068    1408.04875       5.5457       4.6749
   1658.03350       5.6508       3.2103    1408.03350       5.5478       4.7997
   1658.01824       5.5859       3.0897    1408.01824       5.5201       4.7796
   1658.00298       5.5952       3.1084    1408.00298       5.5305       4.8127
   1657.98772       5.5690       3.0785    1407.98772       5.5729       4.9621
   1657.97246       5.5592       2.9875    1407.97246       5.5001       4.8966
   1657.95720       5.5398       3.0891    1407.95720       5.5291       4.9001
   1657.94194       5.5468       3.0236    1407.94194       5.6125       4.9367
   1657.92668       5.5925       3.0332    1407.92668       5.5178       5.0416
   1657.91143       5.5149       2.9966    1407.91143       5.5985       4.8589
   1657.89617       5.5072       2.9683    1407.89617       5.6040       4.9228
   1657.88091       5.4712       2.9592    1407.88091       5.6013       5.1602
   1657.86565       5.5738       2.8822    1407.86565       5.6013       5.0419
   1657.85039       5.4485       2.9057    1407.85039       5.5612       5.0352
   1657.83513       5.4867       2.8852    1407.83513       5.5114       5.0902
   1657.81987       5.4276       2.8817    1407.81987       5.5468       5.0528
   1657.80461       5.4256       2.8627    1407.80461       5.5411       5.2280
   1657.78936       5.4413       2.8029    1407.78936       5.6244       5.1409
   1657.77410       5.4313       2.8084    1407.77410       5.6261       5.0858
   1657.75884       5.4120       2.7878    1407.75884       5.5997       5.2129
   1657.74358       5.3824       2.7161    1407.74358       5.6564       5.2903
   1657.72832       5.4692       2.7980    1407.72832       5.6271       5.2206
   1657.71306       5.4290       2.7690    1407.71306       5.5504       5.2588
   1657.69780       5.3846       2.7953    1407.69780       5.6628       5.3419
   1657.68254       5.3908       2.7756    1407.68254       5.6019       5.3779
   1657.66729       5.3730       2.6784    1407.66729       5.6392       5.4135
   1657.65203       5.2883       2.5502    1407.65203       5.5904       5.3107
   1657.63677       5.2761       2.6296    1407.63677       5.5312       5.3120
   1657.62151       5.2746       2.5306    1407.62151       5.5838       5.3926
   1657.60625       7.7802      20.8648    1407.60625       5.6097       5.4540
   1657.59099       5.3474       2.6048    1407.59099       5.5935       5.5122
   1657.57573       5.3394       2.5287    1407.57573       5.6685       5.4568
   1657.56047       5.2999       2.5501    1407.56047       5.6109       5.4211
   1657.54521       5.3339       2.5403    1407.54521       5.5608       5.5203
   1657.52996       5.2972       2.5444    1407.52996       5.5305       5.3738
   1657.51470       5.2698       2.5726    1407.51470       5.5810       5.5080
   1657.49944       5.2290       2.5060    1407.49944       5.6324       5.5331
   1657.48418       5.3300       2.5675    1407.48418       5.5910       5.6121
   1657.46892       5.1999       2.4782    1407.46892       5.5974       5.5859
   1657.45366       5.1964       2.4433    1407.45366       5.6386       5.6039
   1657.43840       5.2493       2.4891    1407.43840       5.6519       5.6395
   1657.42314       5.2544       2.4454    1407.42314       5.5951       5.6387
   1657.40789       5.2016       2.4115    1407.40789       5.5837       5.6478
   1657.39263       5.2484       2.4196    1407.39263       5.5749       5.5958
   1657.37737       5.2231       2.3795    1407.37737       5.6020       5.7458
   1657.36211       5.2251       2.3498    1407.36211       5.6088       5.7111
   1657.34685       5.1412       2.4172    1407.34685       5.6731       5.7262
   1657.33159       5.2157       2.3263    1407.33159       5.6111       5.7586
   1657.31633       5.1241       2.2734    1407.31633       5.5604       5.8580
   1657.30107       5.0477       2.3072    1407.30107       5.5404       5.8761
   1657.28582       5.1154       2.2872    1407.28582       5.5951       5.7767
   1657.27056       5.1265       2.2188    1407.27056       5.5097       5.8030
   1657.25530       5.0404       2.2063    1407.25530       5.6039       5.7041
   1657.24004       5.1826       2.2111    1407.24004       5.5767       5.8383
   1657.22478       5.1437       2.1491    1407.22478       5.5836       5.8757
   1657.20952       5.2018       2.2124    1407.20952       5.4658       5.9331
   1657.19426       5.0445       2.2593    1407.19426       5.5442       5.9946
   1657.17900       5.0331       2.1439    1407.17900       5.5764       5.9723
   1657.16375       5.0562       1.9529    1407.16375       5.5329       6.0189
   1657.14849       5.0145       2.0213    1407.14849       5.5885       6.0413
   1657.13323       4.9901       2.0073    1407.13323       5.5367       6.0574
   1657.11797       6.9155      18.7534    1407.11797       5.5370       5.9685
   1657.10271       5.0267       2.0236    1407.10271       5.5375       5.9691
   1657.08745       4.9998       2.0004    1407.08745       5.5792       6.0393
   1657.07219       5.0843       2.0957    1407.07219       5.4673       6.0252
   1657.05693       5.0778       2.0649    1407.05693       5.5265       6.1047
   1657.04167       5.0769       2.0781    1407.04167       5.5130       6.1513
   1657.02642       5.0038       2.0348    1407.02642       5.5016       6.1522
   1657.01116       5.0146       1.9961    1407.01116       5.4645       6.1321
   1656.99590       5.0350       1.9779    1406.99590       5.4770       6.1875
   1656.98064       4.9176       1.9589    1406.98064       5.5573       6.2499
   1656.96538       4.9623       1.9884    1406.96538       5.4585       6.0215
   1656.95012       4.9789       1.8594    1406.95012       5.4213       6.1159
   1656.93486       4.9860       1.8871    1406.93486       5.4093       6.1696
   1656.91960       4.9364       1.8606    1406.91960       5.4109       6.3330
   1656.90435       4.9182       1.8670    1406.90435       5.4687       6.1563
   1656.88909       4.8882       1.9087    1406.88909       5.4486       6.2965
   1656.87383       4.8979       1.8816    1406.87383       5.4333       6.2927
   1656.85857       4.9629       1.7861    1406.85857       5.4543       6.2487
   1656.84331       4.9903       1.7988    1406.84331       5.3492       6.3825
   1656.82805       4.9214       1.8393    1406.82805       5.4137       6.2195
   1656.81279       4.9302       1.7379    1406.81279       5.3877       6.2570
   1656.79753       4.9737       1.7837    1406.79753       5.4277       6.3688
   1656.78228       4.9426       1.7282    1406.78228       5.4260       6.4502
   1656.76702       4.8516       1.7465    1406.76702       5.4281       6.3580
   1656.75176       4.9694       1.7362    1406.75176       5.3339       6.4360
   1656.73650       4.8882       1.6683    1406.73650       5.3994       6.4410
   1656.72124       4.9128       1.7350    1406.72124       5.3421       6.4495
   1656.70598       4.9010       1.6814    1406.70598       5.3045       6.4127
   1656.69072       4.9046       1.5529    1406.69072       5.2984       6.4271
   1656.67546       4.8510       1.4913    1406.67546       5.3024       6.4294
   1656.66021       4.8202       1.6158    1406.66021       5.2880       6.5315
   1656.64495       4.7232       1.2913    1406.64495       5.2995       6.5645
   1656.62969       6.5814      16.4690    1406.62969       5.2937       6.5867
   1656.61443       4.7176       1.5972    1406.61443       5.1892       6.3845
   1656.59917       4.8397       1.6424    1406.59917       5.2891       6.3701
   1656.58391       4.8469       1.5913    1406.58391       5.1873       6.5082
   1656.56865       4.8973       1.5058    1406.56865       5.2203       6.5772
   1656.55339       4.8564       1.5230    1406.55339       5.2336       6.6167
   1656.53813       4.8759       1.5150    1406.53813       5.2073       6.6238
   1656.52288       4.8652       1.6191    1406.52288       5.2035       6.6462
   1656.50762       4.8329       1.5006    1406.50762       5.2245       6.5553
   1656.49236       4.8807       1.4300    1406.49236       5.2019       6.6698
   1656.47710       4.8143       1.4431    1406.47710       5.1113       6.6616
   1656.46184       4.7442       1.3704    1406.46184       5.1711       6.5730
   1656.44658       4.7999       1.4506    1406.44658       5.1338       6.5902
   1656.43132       4.8393       1.4073    1406.43132       5.2017       6.5855
   1656.41606       4.8551       1.3866    1406.41606       5.0997       6.6706
   1656.40081       4.8062       1.3913    1406.40081       5.0353       6.7429
   1656.38555       4.7642       1.4126    1406.38555       5.1592       6.7707
   1656.37029       4.7899       1.4115    1406.37029       5.1392       6.7495
   1656.35503       4.7668       1.3864    1406.35503       5.1285       6.7112
   1656.33977       4.7482       1.4227    1406.33977       5.0341       6.7259
   1656.32451       4.7863       1.3629    1406.32451       4.9550       6.8246
   1656.30925       4.8111       1.2798    1406.30925       5.0690       6.7447
   1656.29399       4.7482       1.3372    1406.29399       5.0522       6.6891
   1656.27874       4.8007       1.3274    1406.27874       5.0149       6.8096
   1656.26348       4.7739       1.2479    1406.26348       4.9553       6.7276
   1656.24822       4.8442       1.2417    1406.24822       5.0356       6.8652
   1656.23296       4.7991       1.3163    1406.23296       4.9382       6.8612
   1656.21770       4.8273       1.2511    1406.21770       4.9650       6.8852
   1656.20244       4.7654       1.2110    1406.20244       4.9019       6.9645
   1656.18718       4.7031       1.0970    1406.18718       4.9834       6.8386
   1656.17192       4.6688       1.1547    1406.17192       4.8842       6.9523
   1656.15667       4.6763       1.1045    1406.15667       4.9413       6.8169
   1656.14141       6.3554      14.3888    1406.14141       4.9377       6.7309
   1656.12615       4.7536       1.2436    1406.12615       4.8701       6.9083
   1656.11089       4.8077       1.2089    1406.11089       4.8904       6.8768
   1656.09563       4.8001       1.2645    1406.09563       4.8664       6.8146
   1656.08037       4.7979       1.1060    1406.08037       4.8346       6.9158
   1656.06511       4.8484       1.2292    1406.06511       4.7711       6.9495
   1656.04985       4.7742       1.0998    1406.04985       4.7739       6.9239
   1656.03459       4.8027       1.1315    1406.03459       4.8009       6.8568
   1656.01934       4.7735       1.1744    1406.01934       4.7605       6.9717
   1656.00408       4.7329       1.1120    1406.00408       4.6954       6.8938
   1655.98882       4.8082       1.1216    1405.98882       4.6840       6.9983
   1655.97356       4.8107       1.0923    1405.97356       4.7605       6.9366
   1655.95830       4.7559       1.1075    1405.95830       4.7135       6.8906
   1655.94304       4.7132       1.0382    1405.94304       4.7028       6.8785
   1655.92778       4.7751       1.1161    1405.92778       4.7415       6.9739
   1655.91252       4.7088       1.0994    1405.91252       4.6541       6.7982
   1655.89727       4.7980       1.0611    1405.89727       4.6519       6.9368
   1655.88201       4.7783       1.0638    1405.88201       4.6770       6.9507
   1655.86675       4.7685       1.1252    1405.86675       4.6248       6.9198
   1655.85149       4.7418       1.0965    1405.85149       4.5355       6.9553
   1655.83623       4.7944       1.1085    1405.83623       4.6140       6.8864
   1655.82097       4.7846       1.0470    1405.82097       4.5810       6.8560
   1655.80571       4.7725       1.0413    1405.80571       4.5865       6.8914
   1655.79045       4.7906       0.9656    1405.79045       4.6234       6.9150
   1655.77520       4.8188       1.0349    1405.77520       4.4625       6.8738
   1655.75994       4.8415       1.0637    1405.75994       4.4920       6.8615
   1655.74468       4.7617       1.0336    1405.74468       4.5396       6.9084
   1655.72942       4.8268       1.0192    1405.72942       4.4563       6.9772
   1655.71416       4.7682       0.9416    1405.71416       4.5609       7.0181
   1655.69890       4.6815       0.8477    1405.69890       4.4906       6.9381
   1655.68364       4.7561       0.8786    1405.68364       4.4550       6.9078
   1655.66838       4.7607       0.7454    1405.66838       4.4987       6.9879
   1655.65312       5.9944      12.0753    1405.65313       4.4242       7.0021
   1655.63787       4.7623       1.0257    1405.63787       4.3988       7.0226
   1655.62261       4.7647       0.9491    1405.62261       4.4478       6.9869
   1655.60735       4.8212       1.0226    1405.60735       4.4010       6.9208
   1655.59209       4.7827       0.9261    1405.59209       4.3587       6.9708
   1655.57683       4.8215       0.9293    1405.57683       4.3820       7.0321
   1655.56157       4.8202       0.9454    1405.56157       4.3399       7.1252
   1655.54631       4.8775       0.9533    1405.54631       4.3748       7.0517
   1655.53105       4.8029       0.8809    1405.53105       4.3552       7.0406
   1655.51580       4.7947       0.9613    1405.51580       4.3751       6.9009
   1655.50054       4.7943       0.7962    1405.50054       4.2836       7.0599
   1655.48528       4.7751       0.9128    1405.48528       4.3145       7.0617
   1655.47002       4.8346       0.9274    1405.47002       4.2718       7.0106
   1655.45476       4.7912       0.9669    1405.45476       4.3029       7.0493
   1655.43950       4.8149       0.9369    1405.43950       4.2468       6.8963
   1655.42424       4.7832       0.9195    1405.42424       4.2236       7.0058
   1655.40898       4.8242       0.9863    1405.40898       4.1491       6.9089
   1655.39373       4.8257       0.9104    1405.39373       4.1596       6.9688
   1655.37847       4.8283       0.9220    1405.37847       4.2248       7.0055
   1655.36321       4.7486       0.9709    1405.36321       4.2667       6.9573
   1655.34795       4.7966       0.8607    1405.34795       4.2436       6.9967
   1655.33269       4.8417       0.9349    1405.33269       4.2021       7.0983
   1655.31743       4.8375       0.9163    1405.31743       4.1640       6.9464
   1655.30217       4.8398       0.8264    1405.30217       4.1693       7.0478
   1655.28691       4.8557       0.8502    1405.28691       4.1578       6.9651
   1655.27166       4.8117       0.9429    1405.27166       4.0632       7.0418
   1655.25640       4.8107       0.8942    1405.25640       4.0982       6.9062
   1655.24114       4.7982       0.8814    1405.24114       4.1303       6.9103
   1655.22588       4.7844       0.8680    1405.22588       4.1048       6.9123
   1655.21062       4.7599       0.8258    1405.21062       3.9705       6.9372
   1655.19536       4.8039       0.6747    1405.19536       4.0971       6.9146
   1655.18010       4.7900       0.8011    1405.18010       4.0693       6.9259
   1655.16484       5.7308       9.8704    1405.16484       4.1024       6.9812
   1655.14958       4.8150       0.8897    1405.14958       4.0525       6.9828
   1655.13433       4.7762       0.8902    1405.13433       4.0265       6.8320
   1655.11907       4.8653       0.8664    1405.11907       4.0692       6.8893
   1655.10381       4.8439       0.9304    1405.10381       3.9807       6.9233
   1655.08855       4.8329       0.8733    1405.08855       4.0078       6.8842
   1655.07329       4.8970       0.8928    1405.07329       3.9753       6.8441
   1655.05803       4.9737       0.8519    1405.05803       3.9970       6.9708
   1655.04277       4.8973       0.9277    1405.04277       3.9824       6.7730
   1655.02751       4.8724       0.9922    1405.02751       3.9651       6.8200
   1655.01226       4.8410       0.9474    1405.01226       4.0270       6.8701
   1654.99700       4.8393       0.9158    1404.99700       3.9896       6.7976
   1654.98174       4.9470       0.9335    1404.98174       4.0145       6.8047
   1654.96648       4.9134       0.8131    1404.96648       3.9270       6.7844
   1654.95122       4.9130       0.9298    1404.95122       3.9049       6.8422
   1654.93596       4.8828       0.8878    1404.93596       3.9092       6.9139
   1654.92070       4.8586       0.9201    1404.92070       3.9680       6.8839
   1654.90544       4.9100       0.8978    1404.90544       3.9153       6.8621
   1654.89019       4.8965       0.8918    1404.89019       3.8972       6.8579
   1654.87493       4.9291       0.9327    1404.87493       3.8841       6.8091
   1654.85967       4.9237       0.8479    1404.85967       3.8420       6.8273
   1654.84441       4.9135       0.9674    1404.84441       3.8453       6.8454
   1654.82915       4.9390       0.8717    1404.82915       3.8095       6.7795
   1654.81389       4.9027       0.9581    1404.81389       3.8577       6.7755
   1654.79863       4.9899       1.0773    1404.79863       3.8122       6.7088
   1654.78337       4.8725       0.9855    1404.78337       3.8912       6.7422
   1654.76812       4.9146       0.9861    1404.76812       3.8557       6.7031
   1654.75286       4.9122       0.9836    1404.75286       3.8621       6.7873
   1654.73760       4.9757       0.9097    1404.73760       3.8024       6.7670
   1654.72234       4.9536       0.8443    1404.72234       3.7941       6.7234
   1654.70708       4.9362       0.8119    1404.70708       3.8392       6.6563
   1654.69182       4.8962       0.8540    1404.69182       3.8488       6.6485
   1654.67656       5.5435       8.6268    1404.67656       3.8118       6.6552
   1654.66130       4.9036       0.9937    1404.66130       3.8266       6.6089
   1654.64604       4.9498       1.0212    1404.64604       3.7320       6.6494
   1654.63079       4.9903       0.9776    1404.63079       3.7841       6.5157
   1654.61553       4.9623       1.0653    1404.61553       3.8293       6.5664
   1654.60027       4.9324       1.0475    1404.60027       3.7471       6.5840
   1654.58501       4.8875       1.0847    1404.58501       3.7883       6.5759
   1654.56975       4.9558       1.0454    1404.56975       3.8394       6.5388
   1654.55449       4.9746       0.9739    1404.55449       3.7563       6.6137
   1654.53923       4.9523       1.0324    1404.53923       3.7606       6.5293
   1654.52397       4.9728       1.1110    1404.52397       3.7950       6.4923
   1654.50872       4.9638       1.0573    1404.50872       3.8343       6.5027
   1654.49346       4.9012       1.0800    1404.49346       3.7537       6.4475
   1654.47820       4.9480       1.0350    1404.47820       3.7238       6.5237
   1654.46294       4.9476       1.1143    1404.46294       3.7141       6.4877
   1654.44768       4.9137       1.0351    1404.44768       3.8019       6.3999
   1654.43242       4.8704       1.1585    1404.43242       3.7536       6.3464
   1654.41716       4.9774       1.0593    1404.41716       3.7486       6.2921
   1654.40190       4.9473       1.1704    1404.40190       3.7624       6.3327
   1654.38665       4.9796       1.1343    1404.38665       3.7282       6.3374
   1654.37139       4.9610       1.1971    1404.37139       3.7506       6.3007
   1654.35613       5.0105       1.2119    1404.35613       3.7807       6.2590
   1654.34087       5.0056       1.1069    1404.34087       3.7257       6.3489
   1654.32561       4.9624       1.1316    1404.32561       3.6804       6.3018
   1654.31035       4.9424       1.0909    1404.31035       3.7408       6.3147
   1654.29509       5.0184       1.1381    1404.29509       3.7608       6.3224
   1654.27983       4.9581       1.1760    1404.27983       3.7083       6.2275
   1654.26458       4.9127       1.2313    1404.26458       3.7433       6.2234
   1654.24932       4.9991       1.2007    1404.24932       3.7502       6.2587
   1654.23406       4.9867       1.1217    1404.23406       3.6736       6.2103
   1654.21880       4.9528       1.1665    1404.21880       3.7567       6.1747
   1654.20354       5.0449       1.3100    1404.20354       3.7234       6.1331
   1654.18828       5.3746       7.7951    1404.18828       3.6940       6.1569
   1654.17302       4.9379       1.3072    1404.17302       3.7225       6.0848
   1654.15776       4.9992       1.2732    1404.15776       3.7128       6.1091
   1654.14250       4.8949       1.3283    1404.14250       3.7184       5.9681
   1654.12725       5.0335       1.3186    1404.12725       3.6386       6.0340
   1654.11199       5.0294       1.3778    1404.11199       3.7152       5.9830
   1654.09673       5.0067       1.4062    1404.09673       3.7457       6.1017
   1654.08147       5.0547       1.3388    1404.08147       3.7639       6.0484
   1654.06621       4.9538       1.3323    1404.06621       3.6778       5.9309
   1654.05095       5.0214       1.3287    1404.05095       3.7121       5.9611
   1654.03569       4.9791       1.4423    1404.03569       3.7035       5.8742
   1654.02043       5.0106       1.3923    1404.02043       3.6462       5.9079
   1654.00518       5.0068       1.4327    1404.00518       3.7117       5.9215
   1653.98992       4.9584       1.4799    1403.98992       3.7349       5.8877
   1653.97466       4.9793       1.5220    1403.97466       3.6746       5.8722
   1653.95940       4.9466       1.4937    1403.95940       3.6389       5.8951
   1653.94414       4.9511       1.4793    1403.94414       3.6779       5.8408
   1653.92888       5.0141       1.5211    1403.92888       3.6962       5.7578
   1653.91362       4.9679       1.4939    1403.91362       3.6479       5.7210
   1653.89836       4.9784       1.5687    1403.89836       3.7735       5.7165
   1653.88311       4.9274       1.5892    1403.88311       3.7249       5.6937
   1653.86785       5.0661       1.5509    1403.86785       3.7069       5.8256
   1653.85259       4.9668       1.5439    1403.85259       3.6875       5.7794
   1653.83733       4.9825       1.6764    1403.83733       3.6811       5.7431
   1653.82207       5.0434       1.6768    1403.82207       3.6981       5.6498
   1653.80681       4.9612       1.5984    1403.80681       3.6814       5.6313
   1653.79155       4.9090       1.6969    1403.79155       3.6788       5.6035
   1653.77629       5.0085       1.7119    1403.77629       3.6960       5.6026
   1653.76104       4.9978       1.7582    1403.76104       3.6867       5.5297
   1653.74578       4.9038       1.6778    1403.74578       3.7237       5.5975
   1653.73052       4.8998       1.7275    1403.73052       3.7019       5.5801
   1653.71526       5.2654       2.2598    1403.71526       3.7767       5.7246
   1653.70000       5.1478       2.1898    1403.70000       4.0403       5.6262
   1653.68474       4.9787       2.0432    1403.68474       4.3057       5.5337
   1653.66948       4.7937       1.8649    1403.66948       3.7162       5.4769
   1653.65422       4.8786       1.8918    1403.65422       3.6851       5.4267
   1653.63896       4.9209       1.8999    1403.63896       3.7106       5.4280
   1653.62371       4.9060       1.8280    1403.62371       3.6959       5.3830
   1653.60845       4.9343       1.9190    1403.60845       3.7436       5.3979
   1653.59319       4.8829       1.9181    1403.59319       3.6883       5.2246
   1653.57793       4.8554       1.9509    1403.57793       3.7125       5.3164
   1653.56267       4.8599       1.9741    1403.56267       3.6605       5.2274
   1653.54741       4.9220       2.0390    1403.54741       3.6915       5.3421
   1653.53215       4.9814       2.0283    1403.53215       3.6793       5.2584
   1653.51689       4.8166       2.0108    1403.51689       3.6644       5.1490
   1653.50164       4.8996       1.9975    1403.50164       3.6899       5.1875
   1653.48638       4.8804       2.0369    1403.48638       3.6982       5.0777
   1653.47112       4.8983       2.0477    1403.47112       3.6992       5.2076
   1653.45586       4.9057       2.1087    1403.45586       3.7275       5.0895
   1653.44060       4.8364       2.1503    1403.44060       3.7496       5.1921
   1653.42534       4.8875       2.1258    1403.42534       3.7260       5.1163
   1653.41008       4.7972       2.2090    1403.41008       3.7447       5.0101
   1653.39482       4.8161       2.1894    1403.39482       3.6966       5.0511
   1653.37957       4.8450       2.2865    1403.37957       3.6848       4.9687
   1653.36431       4.7914       2.2468    1403.36431       3.8112       4.9487
   1653.34905       4.7697       2.2226    1403.34905       3.7985       4.8520
   1653.33379       4.8040       2.3359    1403.33379       3.7756       4.9265
   1653.31853       4.8261       2.3976    1403.31853       3.7676       4.8528
   1653.30327       4.8635       2.3686    1403.30327       3.7317       4.9284
   1653.28801       4.8938       2.3787    1403.28801       3.7577       4.9013
   1653.27275       4.7809       2.4205    1403.27275       3.7798       4.8771
   1653.25750       4.6965       2.4274    1403.25750       3.7482       4.7537
   1653.24224       4.7252       2.4989    1403.24224       3.7432       4.7334
   1653.22698       4.6908       2.5148    1403.22698       3.7520       4.8765
   1653.21172       4.9010       6.5630    1403.21172       3.8367       4.7849
   1653.19646       4.6411       2.5154    1403.19646       3.7236       4.7736
   1653.18120       4.6879       2.5277    1403.18120       3.7293       4.7154
   1653.16594       4.6777       2.5776    1403.16594       3.7260       4.8050
   1653.15068       4.6788       2.6526    1403.15068       3.6814       4.5379
   1653.13542       4.7446       2.6930    1403.13542       3.7105       4.4988
   1653.12017       4.6842       2.7250    1403.12017       3.7944       4.4918
   1653.10491       4.6706       2.6523    1403.10491       3.7717       4.5034
   1653.08965       4.6423       2.6733    1403.08965       3.8198       4.5189
   1653.07439       4.6844       2.7614    1403.07439       3.8036       4.5622
   1653.05913       4.6611       2.7930    1403.05913       3.7800       4.4099
   1653.04387       4.6425       2.7959    1403.04387       3.7728       4.4195
   1653.02861       4.5955       2.8587    1403.02861       3.7889       4.3624
   1653.01335       4.6525       2.8455    1403.01335       3.7817       4.4521
   1652.99810       4.6166       2.8932    1402.99810       3.8232       4.3390
   1652.98284       4.6802       2.9605    1402.98284       3.8187       4.3040
   1652.96758       4.6206       2.9725    1402.96758       3.8316       4.3091
   1652.95232       4.5622       3.0537    1402.95232       3.7851       4.2660
   1652.93706       4.6024       3.0243    1402.93706       3.7815       4.1766
   1652.92180       4.5568       2.9639    1402.92180       3.8593       4.1834
   1652.90654       4.5428       3.0871    1402.90654       3.7800       4.2229
   1652.89128       4.5763       3.0912    1402.89128       3.8283       4.2385
   1652.87603       4.4975       3.1288    1402.87603       3.8064       4.2108
   1652.86077       4.4934       3.1492    1402.86077       3.8202       4.1522
   1652.84551       4.5180       3.1909    1402.84551       3.8248       3.9883
   1652.83025       4.4932       3.1968    1402.83025       3.8283       3.9129
   1652.81499       4.5315       3.2289    1402.81499       3.8325       3.9877
   1652.79973       4.4564       3.2734    1402.79973       3.8517       3.8641
   1652.78447       4.4611       3.2770    1402.78447       3.8743       3.9239
   1652.76921       4.4630       3.2765    1402.76921       3.8109       3.9047
   1652.75396       4.4463       3.3427    1402.75396       3.8366       3.8967
   1652.73870       4.4204       3.3771    1402.73870       3.8614       3.9034
   1652.72344       4.4168       6.3577    1402.72344       3.9190       3.9691
   1652.70818       4.3866       3.3982    1402.70818       3.9463       3.7302
   1652.69292       4.3498       3.4560    1402.69292       3.8323       3.7803
   1652.67766       4.3981       3.4649    1402.67766       3.8609       3.7135
   1652.66240       4.3134       3.5705    1402.66240       3.8524       3.7812
   1652.64714       4.3014       3.5325    1402.64714       3.9010       3.6587
   1652.63188       4.3907       3.6087    1402.63188       3.8597       3.6265
   1652.61663       4.4321       3.6527    1402.61663       3.8377       3.6006
   1652.60137       4.2662       3.6134    1402.60137       3.9012       3.4864
   1652.58611       4.2625       3.6791    1402.58611       3.8675       3.5689
   1652.57085       4.3217       3.7325    1402.57085       3.9417       3.5856
   1652.55559       4.2190       3.7184    1402.55559       3.8310       3.4347
   1652.54033       4.2796       3.7674    1402.54033       3.8762       3.4441
   1652.52507       4.2541       3.7852    1402.52507       3.9363       3.4243
   1652.50981       4.2539       3.9288    1402.50981       3.9192       3.4684
   1652.49456       4.2708       3.8843    1402.49456       3.9187       3.4597
   1652.47930       4.2808       3.8526    1402.47930       3.9957       3.4407
   1652.46404       4.1981       3.9722    1402.46404       3.9565       3.3083
   1652.44878       4.2157       3.9977    1402.44878       3.9684       3.4023
   1652.43352       4.1022       4.0222    1402.43352       3.8647       3.2999
   1652.41826       4.2391       4.0471    1402.41826       3.8676       3.3197
   1652.40300       4.1507       4.0984    1402.40300       3.9840       3.2621
   1652.38774       4.1441       4.1035    1402.38774       3.9480       3.1233
   1652.37249       4.1163       4.1087    1402.37249       3.9734       3.1225
   1652.35723       4.2403       4.2069    1402.35723       3.9287       3.2432
   1652.34197       4.1938       4.1961    1402.34197       3.9477       3.2128
   1652.32671       4.1378       4.2702    1402.32671       4.0262       3.1648
   1652.31145       4.0986       4.3106    1402.31145       3.9981       3.0807
   1652.29619       4.0643       4.3046    1402.29619       3.9983       3.0592
   1652.28093       4.0791       4.3516    1402.28093       3.9401       2.9856
   1652.26567       4.0196       4.3278    1402.26567       3.9502       2.9810
   1652.25042       3.9739       4.4089    1402.25042       3.9610       2.9485
   1652.23516       4.0802       6.5244    1402.23516       4.0629       2.9885
   1652.21990       3.9361       4.3983    1402.21990       3.9652       3.0173
   1652.20464       3.9440       4.4147    1402.20464       4.0024       2.8973
   1652.18938       3.9555       4.4836    1402.18938       3.9477       2.8443
   1652.17412       4.0050       4.5505    1402.17412       3.9686       2.7608
   1652.15886       3.9390       4.5723    1402.15886       3.9774       2.8199
   1652.14360       3.9822       4.5630    1402.14360       3.9761       2.6613
   1652.12834       3.9355       4.6894    1402.12834       4.0065       2.7953
   1652.11309       3.8912       4.7681    1402.11309       3.9633       2.8979
   1652.09783       3.7563       4.7638    1402.09783       4.0931       2.7261
   1652.08257       3.8558       4.7392    1402.08257       3.9681       2.6918
   1652.06731       3.8480       4.8750    1402.06731       4.0334       2.5709
   1652.05205       3.7978       4.8415    1402.05205       4.0608       2.5317
   1652.03679       3.8646       4.8222    1402.03679       4.0503       2.5745
   1652.02153       3.7726       4.9237    1402.02153       4.0278       2.5794
   1652.00627       3.8206       4.9513    1402.00627       3.9986       2.3505
   1651.99102       3.8274       4.8959    1401.99102       3.9798       2.5196
   1651.97576       3.7492       4.9874    1401.97576       3.9102       2.4104
   1651.96050       3.7572       5.0898    1401.96050       4.0535       2.4105
   1651.94524       3.7298       5.1587    1401.94524       3.9538       2.3846
   1651.92998       3.6903       5.1562    1401.92998       3.8507       2.3525
   1651.91472       3.7571       5.1553    1401.91472       4.0479       2.3481
   1651.89946       3.6962       5.1824    1401.89946       3.9726       2.2873
   1651.88420       3.6521       5.2144    1401.88420       4.1078       2.3079
   1651.86895       3.6315       5.2044    1401.86895       4.0778       2.2907
   1651.85369       3.6045       5.2494    1401.85369       3.9843       2.2695
   1651.83843       3.6373       5.3838    1401.83843       4.0297       2.2849
   1651.82317       3.5633       5.3462    1401.82317       4.0597       2.1933
   1651.80791       3.5338       5.3402    1401.80791       4.0680       2.0684
   1651.79265       3.5622       5.4533    1401.79265       4.0048       2.1197
   1651.77739       3.5403       5.5002    1401.77739       3.9299       2.1579
   1651.76213       3.5151       5.5125    1401.76213       3.9915       2.0680
   1651.74687       3.4176       7.0313    1401.74688       4.0329       2.0657
   1651.73162       3.4507       5.4903    1401.73162       4.0088       2.1470
   1651.71636       3.4386       5.4858    1401.71636       3.9648       2.0179
   1651.70110       3.4610       5.5166    1401.70110       4.0881       1.9645
   1651.68584       3.3680       5.6421    1401.68584       4.0076       2.0239
   1651.67058       3.5004       5.7086    1401.67058       3.9775       1.8316
   1651.65532       3.4083       5.7716    1401.65532       3.9612       1.8659
   1651.64006       3.4450       5.8121    1401.64006       3.9532       1.9181
   1651.62480       3.3757       5.8264    1401.62480       3.9581       1.8188
   1651.60955       3.3384       5.8293    1401.60955       4.0154       1.8303
   1651.59429       3.2980       5.8689    1401.59429       3.9911       1.8345
   1651.57903       3.3089       5.8255    1401.57903       3.9384       1.8311
   1651.56377       3.3518       5.9678    1401.56377       4.0698       1.7541
   1651.54851       3.2671       5.9691    1401.54851       4.0254       1.7286
   1651.53325       3.2503       6.0193    1401.53325       3.9535       1.6494
   1651.51799       3.2637       6.0250    1401.51799       3.9435       1.5646
   1651.50273       3.2992       6.0934    1401.50273       3.9822       1.6742
   1651.48748       3.2418       6.2285    1401.48748       4.0226       1.6308
   1651.47222       3.2160       6.1877    1401.47222       4.0290       1.5343
   1651.45696       3.1476       6.1286    1401.45696       3.9428       1.5445
   1651.44170       3.1624       6.2123    1401.44170       3.9683       1.5044
   1651.42644       3.1179       6.1869    1401.42644       3.9924       1.6199
   1651.41118       3.1566       6.1947    1401.41118       4.1188       1.6082
   1651.39592       3.0951       6.3033    1401.39592       4.0032       1.5573
   1651.38066       3.1023       6.3680    1401.38066       3.9381       1.4621
   1651.36541       3.1034       6.3273    1401.36541       3.9607       1.4716
   1651.35015       3.0178       6.4177    1401.35015       3.9433       1.5487
   1651.33489       2.9730       6.3998    1401.33489       3.9020       1.6250
   1651.31963       3.0130       6.5815    1401.31963       3.8938       1.4629
   1651.30437       2.9556       6.5001    1401.30437       3.9632       1.4440
   1651.28911       2.9884       6.5439    1401.28911       3.9631       1.4608
   1651.27385       2.8843       6.6373    1401.27385       3.9495       1.4164
   1651.25859       2.9879       7.8115    1401.25859       3.9111       1.4893
   1651.24333       2.9083       6.6021    1401.24333       3.9207       1.4188
   1651.22808       2.9073       6.5375    1401.22808       4.0004       1.2717
   1651.21282       2.8958       6.5167    1401.21282       3.9299       1.3692
   1651.19756       2.8285       6.6585    1401.19756       3.8766       1.3752
   1651.18230       2.8133       6.7314    1401.18230       3.8686       1.1811
   1651.16704       2.8941       6.8216    1401.16704       3.8789       1.2929
   1651.15178       2.8961       6.8928    1401.15178       3.8909       1.2439
   1651.13652       2.8148       6.9370    1401.13652       3.8869       1.2329
   1651.12126       2.7524       6.8452    1401.12126       3.9548       1.1728
   1651.10601       2.7801       6.9493    1401.10601       3.8642       1.2645
   1651.09075       2.7211       6.9688    1401.09075       3.8376       1.0871
   1651.07549       2.7638       6.9888    1401.07549       3.9087       1.0981
   1651.06023       2.6730       6.9897    1401.06023       3.8267       1.1697
   1651.04497       2.6921       7.0853    1401.04497       3.7852       1.1132
   1651.02971       2.7681       7.0834    1401.02971       3.9084       1.1784
   1651.01445       2.6435       7.0635    1401.01445       3.8490       1.1060
   1650.99919       2.6341       7.0706    1400.99919       3.8396       1.1196
   1650.98394       2.6434       7.1306    1400.98394       3.8641       1.0490
   1650.96868       2.6533       7.1639    1400.96868       3.8062       1.0253
   1650.95342       2.5935       7.1594    1400.95342       3.8647       1.0216
   1650.93816       2.6272       7.2460    1400.93816       3.8014       0.9668
   1650.92290       2.5116       7.2933    1400.92290       3.8414       0.9549
   1650.90764       2.5659       7.3577    1400.90764       3.7823       0.9725
   1650.89238       2.5782       7.2980    1400.89238       3.7449       0.9768
   1650.87712       2.4738       7.4277    1400.87712       3.7953       0.9881
   1650.86187       2.5035       7.3515    1400.86187       3.6892       0.9062
   1650.84661       2.5325       7.4749    1400.84661       3.7545       0.8466
   1650.83135       2.4895       7.4225    1400.83135       3.9542       0.9318
   1650.81609       2.5485       7.4802    1400.81609       3.7870       0.9000
   1650.80083       2.4814       7.4474    1400.80083       3.7614       0.9116
   1650.78557       2.4333       7.5522    1400.78557       3.8412       0.8027
   1650.77031       2.4294       8.4977    1400.77031       3.8043       0.8879
   1650.75505       2.3896       7.4814    1400.75505       3.7317       0.7854
   1650.73979       2.3571       7.5149    1400.73979       3.6869       0.8319
   1650.72454       2.3942       7.5636    1400.72454       3.7586       0.7373
   1650.70928       2.4397       7.6856    1400.70928       3.6617       0.8323
   1650.69402       2.4618       7.6118    1400.69402       3.7747       0.8075
   1650.67876       2.4087       7.7230    1400.67876       3.7154       0.7575
   1650.66350       2.3322       7.6509    1400.66350       3.7705       0.6904
   1650.64824       2.2590       7.7676    1400.64824       3.6740       0.7862
   1650.63298       2.2998       7.7503    1400.63298       3.6077       0.7940
   1650.61772       2.3057       7.8470    1400.61772       3.6425       0.6797
   1650.60247       2.3216       7.8096    1400.60247       3.6609       0.5361
   1650.58721       2.2953       7.8720    1400.58721       3.6687       0.5520
   1650.57195       2.2693       7.8600    1400.57195       3.6462       0.5795
   1650.55669       2.2895       7.8722    1400.55669       3.6431       0.4925
   1650.54143       2.2643       7.8726    1400.54143       3.6310       0.5598
   1650.52617       2.2196       7.8561    1400.52617       3.6200       0.6348
   1650.51091       2.2811       7.8504    1400.51091       3.5257       0.4852
   1650.49565       2.1931       7.9126    1400.49565       3.6010       0.5645
   1650.48040       2.2539       7.9758    1400.48040       3.6300       0.6218
   1650.46514       2.2069       7.9659    1400.46514       3.6046       0.5012
   1650.44988       2.1752       8.0446    1400.44988       3.6011       0.4828
   1650.43462       2.1617       7.9838    1400.43462       3.5665       0.3632
   1650.41936       2.2549       7.9628    1400.41936       3.6146       0.5463
   1650.40410       2.0954       8.0698    1400.40410       3.6075       0.4821
   1650.38884       2.1565       8.0813    1400.38884       3.6334       0.5345
   1650.37358       2.2274       8.1574    1400.37358       3.5567       0.3158
   1650.35833       2.0560       8.1041    1400.35833       3.5348       0.2931
   1650.34307       2.1339       8.1419    1400.34307       3.4691       0.4162
   1650.32781       2.0910       8.1569    1400.32781       3.4608       0.2714
   1650.31255       2.1099       8.1282    1400.31255       3.4856       0.3075
   1650.29729       2.1266       8.1529    1400.29729       3.4582       0.3653
   1650.28203       2.0765       9.0363    1400.28203       3.4980       0.4162
   1650.26677       2.0519       8.1175    1400.26677       3.4882       0.3550
   1650.25151       2.0455       8.1603    1400.25151       3.4875       0.3541
   1650.23625       2.1419       8.2051    1400.23625       3.4700       0.3202
   1650.22100       2.0413       8.2367    1400.22100       3.4772       0.2065
   1650.20574       2.0375       8.2864    1400.20574       3.4276       0.3464
   1650.19048       1.9962       8.2989    1400.19048       3.4571       0.2120
   1650.17522       2.0413       8.2382    1400.17522       3.4982       0.2181
   1650.15996       2.0468       8.2643    1400.15996       3.3884       0.1759
   1650.14470       2.0459       8.2921    1400.14470       3.4306       0.1324
   1650.12944       1.9390       8.3899    1400.12944       3.3880       0.0740
   1650.11418       2.0064       8.3432    1400.11418       3.3600       0.0546
   1650.09893       2.0268       8.3838    1400.09893       3.4744       0.1145
   1650.08367       2.0589       8.3889    1400.08367       3.4411       0.0482
   1650.06841       1.9788       8.4076    1400.06841       3.4196       0.1936
   1650.05315       1.9561       8.3988    1400.05315       3.3709       0.0491
   1650.03789       2.0139       8.3812    1400.03789       3.3850       0.0723
   1650.02263       1.9792       8.5564    1400.02263       3.3965       0.1358
   1650.00737       1.9759       8.4651    1400.00737       3.3046      -0.0535
   1649.99211       2.0245       8.5109    1399.99211       3.3499       0.0237
   1649.97686       1.9772       8.4571    1399.97686       3.3299      -0.1393
   1649.96160       1.9491       8.5220    1399.96160       3.3589      -0.0870
   1649.94634       1.9774       8.4529    1399.94634       3.3523      -0.0029
   1649.93108       1.9887       8.5716    1399.93108       3.3415      -0.1022
   1649.91582       1.9876       8.5330    1399.91582       3.3324      -0.0908
   1649.90056       1.9681       8.4856    1399.90056       3.3516      -0.1470
   1649.88530       1.9588       8.5897    1399.88530       3.3344      -0.0563
   1649.87004       1.9775       8.4545    1399.87004       3.3451      -0.1645
   1649.85479       2.0204       8.5590    1399.85479       3.2674      -0.1792
   1649.83953       2.0266       8.5711    1399.83953       3.2378      -0.1262
   1649.82427       1.9725       8.5857    1399.82427       3.2848      -0.0992
   1649.80901       1.9318       8.4779    1399.80901       3.2385      -0.2114
   1649.79375       2.0293       9.4737    1399.79375       3.2521      -0.1507
   1649.77849       1.9515       8.4782    1399.77849       3.3043      -0.2472
   1649.76323       1.9671       8.6065    1399.76323       3.2462      -0.1626
   1649.74797       1.9319       8.6578    1399.74797       3.3362      -0.1448
   1649.73271       2.0012       8.6497    1399.73271       3.1522      -0.3224
   1649.71746       1.9731       8.6500    1399.71746       3.1615      -0.3729
   1649.70220       1.9970       8.6217    1399.70220       3.1673      -0.3240
   1649.68694       1.9996       8.6203    1399.68694       3.1251      -0.3224
   1649.67168       1.9724       8.5977    1399.67168       3.1941      -0.3431
   1649.65642       1.8941       8.6834    1399.65642       3.3034      -0.3452
   1649.64116       1.9900       8.6401    1399.64116       3.1637      -0.3395
   1649.62590       2.0250       8.6899    1399.62590       3.2370      -0.3954
   1649.61064       1.9549       8.6067    1399.61064       3.2019      -0.4781
   1649.59539       1.9537       8.6849    1399.59539       3.2242      -0.4059
   1649.58013       1.9770       8.7064    1399.58013       3.1754      -0.5062
   1649.56487       2.0055       8.6903    1399.56487       3.1645      -0.4811
   1649.54961       1.9493       8.6407    1399.54961       3.1716      -0.3735
   1649.53435       2.0041       8.6957    1399.53435       3.1073      -0.4944
   1649.51909       2.0361       8.7129    1399.51909       3.1790      -0.4857
   1649.50383       2.0635       8.6885    1399.50383       3.1600      -0.4343
   1649.48857       2.0344       8.7143    1399.48857       3.1674      -0.6108
   1649.47332       1.9870       8.7495    1399.47332       3.1498      -0.5510
   1649.45806       2.0183       8.7222    1399.45806       3.1880      -0.4912
   1649.44280       2.0487       8.7763    1399.44280       3.0886      -0.5911
   1649.42754       1.9748       8.6689    1399.42754       3.1088      -0.5496
   1649.41228       1.9598       8.7543    1399.41228       3.1547      -0.5661
   1649.39702       2.0420       8.7893    1399.39702       3.1310      -0.5349
   1649.38176       2.0634       8.7064    1399.38176       3.1193      -0.5929
   1649.36650       2.0460       8.7461    1399.36650       3.0724      -0.5899
   1649.35125       2.0055       8.7435    1399.35125       3.1507      -0.6086
   1649.33599       2.0132       8.6412    1399.33599       3.0270      -0.7215
   1649.32073       2.0426       8.6366    1399.32073       3.1824      -0.6405
   1649.30547       2.1107       9.7414    1399.30547       3.0849      -0.7499
   1649.29021       2.0804       8.7415    1399.29021       3.0556      -0.6469
   1649.27495       2.0461       9.0463    1399.27495       3.1563      -0.6289
   1649.25969       2.0362       8.6595    1399.25969       3.0238      -0.7137
   1649.24443       2.0492       8.6868    1399.24443       3.1028      -0.7399
   1649.22917       2.1142       8.7520    1399.22917       3.0396      -0.7663
   1649.21392       2.0832       8.6890    1399.21392       3.0929      -0.7677
   1649.19866       2.1549       8.7612    1399.19866       3.0798      -0.7840
   1649.18340       2.0871       8.7189    1399.18340       3.0566      -0.7726
   1649.16814       2.1484       8.7517    1399.16814       3.0646      -0.7460
   1649.15288       2.1687       8.7065    1399.15288       3.1043      -0.8410
   1649.13762       2.1336       8.6461    1399.13762       3.0647      -0.7785
   1649.12236       2.1792       8.6481    1399.12236       3.1227      -0.8586
   1649.10710       2.1907       8.7038    1399.10710       3.0767      -0.7112
   1649.09185       2.1968       8.7351    1399.09185       3.0335      -0.8472
   1649.07659       2.2231       8.7137    1399.07659       2.9773      -0.8118
   1649.06133       2.2427       8.7203    1399.06133       3.0590      -0.9070
   1649.04607       2.2545       8.6624    1399.04607       3.0319      -0.8724
   1649.03081       2.2466       8.6991    1399.03081       2.9577      -0.9127
   1649.01555       2.2200       8.6583    1399.01555       3.1123      -0.8780
   1649.00029       2.2396       8.6869    1399.00029       2.9773      -0.9567
   1648.98503       2.1872       8.7521    1398.98503       3.0086      -0.8908
   1648.96978       2.2384       8.6812    1398.96978       3.0108      -0.9127
   1648.95452       2.2257       8.6363    1398.95452       2.9888      -0.8453
   1648.93926       2.2700       8.6911    1398.93926       3.0192      -0.9198
   1648.92400       2.2674       8.6185    1398.92400       3.0739      -0.9038
   1648.90874       2.3136       8.6632    1398.90874       3.1285      -0.9120
   1648.89348       2.3540       8.6551    1398.89348       2.9848      -0.9199
   1648.87822       2.3208       8.6822    1398.87822       3.0887      -0.9645
   1648.86296       2.3260       8.6262    1398.86296       3.1361      -0.9787
   1648.84771       2.3882       8.5526    1398.84771       2.9901      -1.0156
   1648.83245       2.3523       8.5509    1398.83245       3.0619      -0.9966
   1648.81719       2.5053       9.8651    1398.81719       3.0367      -1.0153
   1648.80193       2.3744       8.6063    1398.80193       3.0731      -1.0518
   1648.78667       2.4327       8.5817    1398.78667       3.0203      -0.8853
   1648.77141       2.4171       8.5722    1398.77141       3.0789      -1.0201
   1648.75615       2.3985       8.5788    1398.75615       3.1389      -0.9562
   1648.74089       2.4764       8.5196    1398.74089       3.0974      -1.1191
   1648.72563       2.4348       8.6170    1398.72563       3.0415      -1.0100
   1648.71038       2.3783       8.5740    1398.71038       3.0067      -1.1394
   1648.69512       2.5387       8.5614    1398.69512       3.1533      -1.1219
   1648.67986       2.5209       8.5929    1398.67986       3.0761      -1.1468
   1648.66460       2.5258       8.5014    1398.66460       3.0954      -1.1466
   1648.64934       2.5558       8.5527    1398.64934       3.0943      -1.0649
   1648.63408       2.5581       8.5527    1398.63408       3.0697      -1.1107
   1648.61882       2.5321       8.5642    1398.61882       3.1144      -1.1104
   1648.60356       2.5708       8.5065    1398.60356       3.1030      -1.1319
   1648.58831       2.5825       8.5281    1398.58831       3.0467      -1.1323
   1648.57305       2.6629       8.4083    1398.57305       3.0271      -1.2082
   1648.55779       2.5686       8.4689    1398.55779       3.1721      -1.1195
   1648.54253       2.5544       8.4753    1398.54253       3.1169      -1.1018
   1648.52727       2.6510       8.4540    1398.52727       3.0984      -1.1812
   1648.51201       2.6636       8.4281    1398.51201       3.0892      -1.0657
   1648.49675       2.6363       8.4432    1398.49675       3.0919      -1.0984
   1648.48149       2.6334       8.3906    1398.48149       3.1019      -1.2389
   1648.46624       2.7003       8.4308    1398.46624       3.0442      -1.0812
   1648.45098       2.7060       8.3701    1398.45098       3.1079      -1.0895
   1648.43572       2.6340       8.3150    1398.43572       3.0285      -1.0849
   1648.42046       2.7258       8.3089    1398.42046       3.2129      -1.1990
   1648.40520       2.7585       8.3767    1398.40520       3.0877      -1.1127
   1648.38994       2.7779       8.3842    1398.38994       3.1361      -1.2531
   1648.37468       2.7984       8.2455    1398.37468       3.1423      -1.1864
   1648.35942       2.8510       8.1595    1398.35942       3.1619      -1.1396
   1648.34417       2.7852       8.2658    1398.34417       3.1619      -1.1996
   1648.32891       2.8690       9.5075    1398.32891       3.2654      -1.1204
   1648.31365       2.8396       8.2353    1398.31365       3.0580      -1.1091
   1648.29839       2.8696       8.2730    1398.29839       3.2697      -1.0503
   1648.28313       2.9420       8.3819    1398.28313       3.2088      -1.0651
   1648.26787       2.8340       8.2479    1398.26787       3.2381      -1.1191
   1648.25261       2.9138       8.2360    1398.25261       3.1731      -1.0774
   1648.23735       2.8719       8.1713    1398.23735       3.2162      -1.0464
   1648.22209       2.9005       8.1828    1398.22209       3.2483      -1.2158
   1648.20684       2.9785       8.2293    1398.20684       3.2783      -1.1933
   1648.19158       2.9769       8.1504    1398.19158       3.1855      -1.1093
   1648.17632       2.9660       8.0808    1398.17632       3.2413      -1.0906
   1648.16106       3.0671       8.1585    1398.16106       3.3183      -1.0959
   1648.14580       3.0153       8.1534    1398.14580       3.2752      -1.1594
   1648.13054       3.0545       8.0219    1398.13054       3.1464      -1.0871
   1648.11528       3.2173       8.0212    1398.11528       3.2981      -1.0537
   1648.10002       3.0185       8.0735    1398.10002       3.2868      -1.0941
   1648.08477       3.1383       8.0866    1398.08477       3.2354      -0.9912
   1648.06951       3.0875       8.0788    1398.06951       3.3501      -1.1114
   1648.05425       3.1958       7.9590    1398.05425       3.3579      -1.0999
   1648.03899       3.1948       7.9871    1398.03899       3.2777      -1.0103
   1648.02373       3.1768       7.9423    1398.02373       3.2854      -1.0154
   1648.00847       3.2139       7.9368    1398.00847       3.2335      -0.9878
   1647.99321       3.2338       7.9278    1397.99321       3.3833      -1.0002
   1647.97795       3.2586       7.9539    1397.97795       3.3199      -1.0769
   1647.96270       3.2569       7.9623    1397.96270       3.3877      -0.9386
   1647.94744       3.2775       8.1976    1397.94744       3.4179      -1.0139
   1647.93218       3.3873       9.0627    1397.93218       3.3741      -1.0353
   1647.91692       3.3775       8.8468    1397.91692       3.4296      -1.0147
   1647.90166       3.3109       8.0555    1397.90166       3.3450      -1.1056
   1647.88640       3.2877       7.6855    1397.88640       3.4648      -0.9211
   1647.87114       3.4293       7.5811    1397.87114       3.4145      -1.0949
   1647.85588       3.3106       7.5278    1397.85588       3.3672      -0.9654
   1647.84062       3.4310       8.8473    1397.84063       3.3248      -1.0608
   1647.82537       3.3443       7.7749    1397.82537       3.5017      -0.9894
   1647.81011       3.4663       7.7731    1397.81011       3.3971      -1.1117
   1647.79485       3.4349       7.6449    1397.79485       3.3979      -0.8616
   1647.77959       3.5171       7.6785    1397.77959       3.3627      -0.9403
   1647.76433       3.5044       7.6839    1397.76433       3.4137      -0.9185
   1647.74907       3.4672       7.6671    1397.74907       3.4524      -0.8911
   1647.73381       3.5039       7.6486    1397.73381       3.5323      -0.9299
   1647.71855       3.5479       7.6212    1397.71855       3.4025      -0.7823
   1647.70330       3.5268       7.5839    1397.70330       3.5121      -0.9452
   1647.68804       3.6083       7.5720    1397.68804       3.5513      -0.7549
   1647.67278       3.5707       7.5385    1397.67278       3.4702      -0.8306
   1647.65752       3.3862       7.5017    1397.65752       3.5794      -0.8038
   1647.64226       3.3612       7.3798    1397.64226       3.5114      -0.9830
   1647.62700       3.0438       7.1583    1397.62700       3.5874      -0.8348
   1647.61174       3.0297       7.0649    1397.61174       3.5471      -0.8380
   1647.59648       3.0736       6.9592    1397.59648       3.5696      -0.8289
   1647.58123       3.2201       7.0521    1397.58123       3.5863      -0.8634
   1647.56597       3.5365       7.3272    1397.56597       3.5890      -0.7694
   1647.55071       3.6993       7.2692    1397.55071       3.5865      -0.6740
   1647.53545       3.8243       7.3549    1397.53545       3.5217      -0.7536
   1647.52019       3.7660       7.3245    1397.52019       3.6259      -0.7512
   1647.50493       3.7486       7.2290    1397.50493       3.5106      -0.8279
   1647.48967       3.8457       7.2209    1397.48967       3.6793      -0.7571
   1647.47441       3.7930       7.2518    1397.47441       3.6874      -0.7501
   1647.45916       3.7651       7.2741    1397.45916       3.5679      -0.7737
   1647.44390       3.7976       7.2452    1397.44390       3.7003      -0.7091
   1647.42864       3.8414       7.1895    1397.42864       3.6228      -0.7323
   1647.41338       3.9383       7.1330    1397.41338       3.7539      -0.7320
   1647.39812       3.8616       6.8915    1397.39812       3.7704      -0.7839
   1647.38286       3.8823       6.8922    1397.38286       3.7457      -0.7220
   1647.36760       3.5943       6.8290    1397.36760       3.7690      -0.6976
   1647.35234       4.0482       8.4117    1397.35234       3.7600      -0.7122
   1647.33708       4.0891       7.0842    1397.33708       3.7635      -0.5345
   1647.32183       4.0310       7.0900    1397.32183       3.7762      -0.6694
   1647.30657       4.0359       6.9424    1397.30657       3.7442      -0.6248
   1647.29131       4.0646       6.9367    1397.29131       3.7742      -0.6399
   1647.27605       4.0452       6.8448    1397.27605       3.7182      -0.6497
   1647.26079       4.0617       6.9057    1397.26079       3.7927      -0.6217
   1647.24553       4.0419       6.8931    1397.24553       3.8518      -0.4442
   1647.23027       4.1543       6.9184    1397.23027       3.8336      -0.6141
   1647.21501       4.1368       6.8687    1397.21501       3.8061      -0.5067
   1647.19976       4.1058       6.7320    1397.19976       3.8081      -0.5404
   1647.18450       4.2251       6.7186    1397.18450       3.8315      -0.5357
   1647.16924       4.2214       6.6631    1397.16924       3.8674      -0.4611
   1647.15398       4.2054       6.6263    1397.15398       3.8500      -0.4859
   1647.13872       4.2720       6.7137    1397.13872       3.8369      -0.4070
   1647.12346       4.2689       6.6469    1397.12346       3.8801      -0.4335
   1647.10820       4.3492       6.6825    1397.10820       3.8813      -0.4624
   1647.09294       4.3651       6.6974    1397.09294       3.9417      -0.4904
   1647.07769       4.3022       6.5880    1397.07769       3.8860      -0.3668
   1647.06243       4.3257       6.6565    1397.06243       4.0111      -0.4389
   1647.04717       4.3955       6.4643    1397.04717       3.9311      -0.4267
   1647.03191       4.3738       6.4215    1397.03191       3.9648      -0.5290
   1647.01665       4.3844       6.4993    1397.01665       3.9139      -0.3875
   1647.00139       4.4411       6.4432    1397.00139       3.9976      -0.3841
   1646.98613       4.3549       6.3768    1396.98613       3.8556      -0.3575
   1646.97087       4.4375       6.4268    1396.97087       3.8994      -0.3605
   1646.95562       4.4355       6.3696    1396.95562       4.0168      -0.3466
   1646.94036       4.5701       6.3021    1396.94036       4.0205      -0.4253
   1646.92510       4.5572       6.3059    1396.92510       3.9420      -0.2856
   1646.90984       4.5966       6.0358    1396.90984       3.9553      -0.3953
   1646.89458       4.1618       5.8952    1396.89458       4.0580      -0.3037
   1646.87932       4.1529       5.9828    1396.87932       3.9701      -0.3298
   1646.86406       5.4077       9.8027    1396.86406       4.0913      -0.3760
   1646.84880       4.6490       6.1015    1396.84880       4.1199      -0.2306
   1646.83354       4.5857       6.1518    1396.83354       4.0665      -0.2965
   1646.81829       4.7476       6.1375    1396.81829       3.9996      -0.2949
   1646.80303       4.7358       6.0579    1396.80303       4.0704      -0.2370
   1646.78777       4.6653       6.0591    1396.78777       4.0945      -0.1445
   1646.77251       4.7563       5.9445    1396.77251       3.9391      -0.1387
   1646.75725       4.6775       5.9593    1396.75725       4.0569      -0.2080
   1646.74199       4.7763       5.7475    1396.74199       4.0304      -0.0472
   1646.72673       4.7155       5.5136    1396.72673       4.1322      -0.2754
   1646.71147       4.3215       5.2693    1396.71147       4.0787      -0.1827
   1646.69622       3.9692       3.0621    1396.69622       4.1120      -0.2303
