#     FILENAME=Skynet_59472_messier_31_62130_10961.A.onoff.cal.txt
#     BASENAME=Skynet_59472_messier_31_62130_10961
#      CONTROL=SKYNET
#     PROJCODE=Skynet_59472_messier_31_62130
#     DATAROOT=/raid/scratch/cyborg/SkynetData
#      DATADIR=/raid/scratch/cyborg
#     DATADIR2=/raid/scratch/cyborg/SkynetData/Skynet_59472_messier_31_62130/C
#     SCANNAME=2019_06_26_10
#     SRC_NAME=messier_31
#     OBSERVER=sdss2_39397
#     DATE_OBS=2021-09-16T00:11:22.120
#        OBSID=62130
#      SCANNUM=10961
#          MJD=59473.0078949
#          UTC=00682
#     SCANTYPE=onoff
#     DATAMODE=HIRES
#     RECEIVER=Rx1_2
#      OBSFREQ=1395.0000
# Actual_FREQ1=1424.4100,
# Actual_FREQ2=1424.4100
#    LO1Tuning=6874.4100
#     RFFILTER=1355_1435
#        OBSBW=-15.6250
#     EFFBANDW=15.6250
#        NCHAN=1024
#    STARTCHAN=51
#     STOPCHAN=972
#         TINT=0.3000
#         TBIN=0.00419430
#       ACCLEN=2048 
#     DURATION=118.50
#     EXPOSURE=99.29
#        FOCUS=37.071
#       RA,DEC=00:43:00.17, 41:16:06.13
#      RA(deg)=12.68220
#     DEC(deg)=41.26873
#   WIDTH(deg)=3.0210x0.0151
#    AZIM(deg)=52.9099
#    ELEV(deg)=21.2509
#     COORDREF=RA_DEC_
#         HREF=10.6846
#         VREF=41.2687
#      RADESYS=FK5
#       OFFSYS=RADEC
#      EQUINOX=2000.00
#     IFATTENS=23.00, 9.00
#   BALANCELEV=1.200 
#   POWER_XLYR=[0.8, 0.56] 
#       VELDEF=RADI-OBS 
#     VELOCITY=0.000 
#         NPOL=2 
#      POLMODE=Linear 
#      POLTYPE=XXYY 
#      WARNING=None 
#     NOISECAL=HI 
#       PRECAL=2 
#      POSTCAL=2 
#     CRYOTEMP=17 
#      BOXTEMP=24 
#         TSYS=XX1:287.94, YY1:319.71
#         TSYS=XX2:287.94, YY2:319.71
#         TCAL=XX1:9.18, YY1:10.14
#         TCAL=XX2:9.18, YY2:10.14
# Calibrated spectra: Tsys*(ON-OFF)/OFF 
#                
#                
#Freq1(MHz)         XX1          YY1   Freq2(MHz)       XX2         YY2 
   1431.44430      -6.8495      -7.6283    1431.44430      -6.8495      -7.6283
   1431.42904      -6.6297      -9.0392    1431.42904      -6.6297      -9.0392
   1431.41378      -6.6950      -8.6880    1431.41378      -6.6950      -8.6880
   1431.39853      -6.3654      -8.5223    1431.39853      -6.3654      -8.5223
   1431.38327      -6.6795      -8.6453    1431.38327      -6.6795      -8.6453
   1431.36801      -7.1053      -7.4379    1431.36801      -7.1053      -7.4379
   1431.35275      -6.4500      -8.1666    1431.35275      -6.4500      -8.1666
   1431.33749      -7.0379      -8.3959    1431.33749      -7.0379      -8.3959
   1431.32223      -6.9980      -8.0269    1431.32223      -6.9980      -8.0269
   1431.30697      -6.5818      -8.0420    1431.30697      -6.5818      -8.0420
   1431.29171      -6.7430      -9.2813    1431.29171      -6.7430      -9.2813
   1431.27646      -7.0489      -7.7745    1431.27646      -7.0489      -7.7745
   1431.26120      -7.0931      -8.3207    1431.26120      -7.0931      -8.3207
   1431.24594      -6.5288      -8.4557    1431.24594      -6.5288      -8.4557
   1431.23068      -7.3589      -8.5040    1431.23068      -7.3589      -8.5040
   1431.21542      -6.7898      -8.1556    1431.21542      -6.7898      -8.1556
   1431.20016      -6.3216      -8.2004    1431.20016      -6.3216      -8.2004
   1431.18490      -6.6157      -8.4150    1431.18490      -6.6157      -8.4150
   1431.16964      -6.4286      -8.1941    1431.16964      -6.4286      -8.1941
   1431.15438      -6.2805      -7.6694    1431.15438      -6.2805      -7.6694
   1431.13913      -6.1536      -7.9958    1431.13913      -6.1536      -7.9958
   1431.12387      -7.0326      -8.7512    1431.12387      -7.0326      -8.7512
   1431.10861      -6.2647      -8.5277    1431.10861      -6.2647      -8.5277
   1431.09335      -7.1730      -8.7465    1431.09335      -7.1730      -8.7465
   1431.07809      -6.7185      -8.8228    1431.07809      -6.7185      -8.8228
   1431.06283      -6.3756      -8.5301    1431.06283      -6.3756      -8.5301
   1431.04757      -7.2552      -7.9090    1431.04757      -7.2552      -7.9090
   1431.03231      -7.4409      -7.9483    1431.03231      -7.4409      -7.9483
   1431.01706      -6.9062      -7.4663    1431.01706      -6.9062      -7.4663
   1431.00180      -6.8064      -9.5070    1431.00180      -6.8064      -9.5070
   1430.98654      -6.3796      -7.7028    1430.98654      -6.3796      -7.7028
   1430.97128      -6.7872      -7.9357    1430.97128      -6.7872      -7.9357
   1430.95602      -6.5957      -8.2147    1430.95602      -6.5957      -8.2147
   1430.94076      -6.6297      -9.2041    1430.94076      -6.6297      -9.2041
   1430.92550      -6.7067      -8.2537    1430.92550      -6.7067      -8.2537
   1430.91024      -6.6042      -8.5649    1430.91024      -6.6042      -8.5649
   1430.89499      -6.2165      -9.0619    1430.89499      -6.2165      -9.0619
   1430.87973      -7.2074      -8.8303    1430.87973      -7.2074      -8.8303
   1430.86447      -6.8434      -8.7558    1430.86447      -6.8434      -8.7558
   1430.84921      -6.0542      -8.1289    1430.84921      -6.0542      -8.1289
   1430.83395      -6.5220      -8.4450    1430.83395      -6.5220      -8.4450
   1430.81869      -6.1849      -8.8259    1430.81869      -6.1849      -8.8259
   1430.80343      -6.8306      -9.6795    1430.80343      -6.8306      -9.6795
   1430.78817      -5.9915      -9.0172    1430.78817      -5.9915      -9.0172
   1430.77292      -5.7566      -8.1442    1430.77292      -5.7566      -8.1442
   1430.75766      -6.1888      -7.5446    1430.75766      -6.1888      -7.5446
   1430.74240      -5.8877      -8.3161    1430.74240      -5.8877      -8.3161
   1430.72714      -6.4411      -8.1154    1430.72714      -6.4411      -8.1154
   1430.71188      -6.6693      -7.9324    1430.71188      -6.6693      -7.9324
   1430.69662      -6.6432      -8.7921    1430.69662      -6.6432      -8.7921
   1430.68136      -6.3823      -8.3082    1430.68136      -6.3823      -8.3082
   1430.66610      -7.2639      -7.8532    1430.66610      -7.2639      -7.8532
   1430.65084      -6.5870      -8.5190    1430.65084      -6.5870      -8.5190
   1430.63559      -5.9108      -9.0178    1430.63559      -5.9108      -9.0178
   1430.62033      -6.4096      -8.3946    1430.62033      -6.4096      -8.3946
   1430.60507      -6.1141      -8.0387    1430.60507      -6.1141      -8.0387
   1430.58981      -6.8906      -9.3119    1430.58981      -6.8906      -9.3119
   1430.57455      -5.7135      -8.7595    1430.57455      -5.7135      -8.7595
   1430.55929      -6.8044      -8.8981    1430.55929      -6.8044      -8.8981
   1430.54403      -6.9158      -8.8998    1430.54403      -6.9158      -8.8998
   1430.52877      -5.9564      -9.5522    1430.52877      -5.9564      -9.5522
   1430.51352      -6.3978      -8.8436    1430.51352      -6.3978      -8.8436
   1430.49826      -5.8890      -8.9356    1430.49826      -5.8890      -8.9356
   1430.48300      -6.6060      -8.5462    1430.48300      -6.6060      -8.5462
   1430.46774      -6.9141      -8.5232    1430.46774      -6.9141      -8.5232
   1430.45248      -6.9937     -10.0960    1430.45248      -6.9937     -10.0960
   1430.43722      -6.2157      -8.6048    1430.43722      -6.2157      -8.6048
   1430.42196      -5.6532      -9.7886    1430.42196      -5.6532      -9.7886
   1430.40670      -6.7933      -9.4883    1430.40670      -6.7933      -9.4883
   1430.39145      -6.3530      -9.2840    1430.39145      -6.3530      -9.2840
   1430.37619      -6.4407      -8.5439    1430.37619      -6.4407      -8.5439
   1430.36093      -6.4216      -9.2200    1430.36093      -6.4216      -9.2200
   1430.34567      -6.4923      -9.0735    1430.34567      -6.4923      -9.0735
   1430.33041      -5.9094      -9.3358    1430.33041      -5.9094      -9.3358
   1430.31515      -6.1758      -8.8845    1430.31515      -6.1758      -8.8845
   1430.29989      -5.8443      -8.3969    1430.29989      -5.8443      -8.3969
   1430.28463      -6.4200      -9.1393    1430.28463      -6.4200      -9.1393
   1430.26937      -6.0090      -9.3238    1430.26937      -6.0090      -9.3238
   1430.25412      -6.5989      -8.8208    1430.25412      -6.5989      -8.8208
   1430.23886      -6.4674      -8.8318    1430.23886      -6.4674      -8.8318
   1430.22360      -6.4543      -7.6475    1430.22360      -6.4543      -7.6475
   1430.20834      -6.2685      -9.0302    1430.20834      -6.2685      -9.0302
   1430.19308      -6.4874      -9.2991    1430.19308      -6.4874      -9.2991
   1430.17782      -6.4503      -9.2487    1430.17782      -6.4503      -9.2487
   1430.16256      -5.6530      -8.3451    1430.16256      -5.6530      -8.3451
   1430.14730      -6.5123      -8.9777    1430.14730      -6.5123      -8.9777
   1430.13205      -7.0131      -8.2484    1430.13205      -7.0131      -8.2484
   1430.11679      -6.0386      -9.1538    1430.11679      -6.0386      -9.1538
   1430.10153      -6.0717      -8.3120    1430.10153      -6.0717      -8.3120
   1430.08627      -6.5185      -9.2142    1430.08627      -6.5185      -9.2142
   1430.07101      -6.3441      -9.1620    1430.07101      -6.3441      -9.1620
   1430.05575      -6.6555      -9.6746    1430.05575      -6.6555      -9.6746
   1430.04049      -6.4825      -9.2462    1430.04049      -6.4825      -9.2462
   1430.02523      -6.3941      -8.5231    1430.02523      -6.3941      -8.5231
   1430.00998      -6.0955      -8.6445    1430.00998      -6.0955      -8.6445
   1429.99472      -5.3281      -9.1353    1429.99472      -5.3281      -9.1353
   1429.97946      -6.1100      -9.1022    1429.97946      -6.1100      -9.1022
   1429.96420      -6.2818      -8.2271    1429.96420      -6.2818      -8.2271
   1429.94894      -6.3362      -9.3979    1429.94894      -6.3362      -9.3979
   1429.93368      -6.5036      -9.9466    1429.93368      -6.5036      -9.9466
   1429.91842      -6.3426      -8.4453    1429.91842      -6.3426      -8.4453
   1429.90316      -5.8026      -8.9072    1429.90316      -5.8026      -8.9072
   1429.88791      -6.4349      -8.9455    1429.88791      -6.4349      -8.9455
   1429.87265      -6.7209      -8.8038    1429.87265      -6.7209      -8.8038
   1429.85739      -6.4614      -8.5990    1429.85739      -6.4614      -8.5990
   1429.84213      -6.6411      -9.5137    1429.84213      -6.6411      -9.5137
   1429.82687      -6.0062      -8.6448    1429.82687      -6.0062      -8.6448
   1429.81161      -6.4639      -8.7013    1429.81161      -6.4639      -8.7013
   1429.79635      -6.2065      -8.6710    1429.79635      -6.2065      -8.6710
   1429.78109      -5.5647      -8.8481    1429.78109      -5.5647      -8.8481
   1429.76583      -6.9049      -9.3087    1429.76583      -6.9049      -9.3087
   1429.75058      -6.3138      -9.1683    1429.75058      -6.3138      -9.1683
   1429.73532      -6.6008      -9.0983    1429.73532      -6.6008      -9.0983
   1429.72006      -5.8032      -9.0422    1429.72006      -5.8032      -9.0422
   1429.70480      -6.1195      -9.0593    1429.70480      -6.1195      -9.0593
   1429.68954      -7.0463      -7.8669    1429.68954      -7.0463      -7.8669
   1429.67428      -5.2703      -9.9726    1429.67428      -5.2703      -9.9726
   1429.65902      -6.7259     -10.0742    1429.65902      -6.7259     -10.0742
   1429.64376      -6.2305      -9.7543    1429.64376      -6.2305      -9.7543
   1429.62851      -5.8993      -9.2948    1429.62851      -5.8993      -9.2948
   1429.61325      -5.7110      -9.5201    1429.61325      -5.7110      -9.5201
   1429.59799      -5.8267      -9.3439    1429.59799      -5.8267      -9.3439
   1429.58273      -6.1561      -9.0684    1429.58273      -6.1561      -9.0684
   1429.56747      -5.7553      -9.9140    1429.56747      -5.7553      -9.9140
   1429.55221      -6.4274      -9.2903    1429.55221      -6.4274      -9.2903
   1429.53695      -6.3458      -8.8652    1429.53695      -6.3458      -8.8652
   1429.52169      -6.3332      -9.3389    1429.52169      -6.3332      -9.3389
   1429.50644      -5.8590      -9.1091    1429.50644      -5.8590      -9.1091
   1429.49118      -5.8321      -9.3015    1429.49118      -5.8321      -9.3015
   1429.47592      -5.9127      -9.0882    1429.47592      -5.9127      -9.0882
   1429.46066      -6.0702      -9.4036    1429.46066      -6.0702      -9.4036
   1429.44540      -6.4914      -8.6775    1429.44540      -6.4914      -8.6775
   1429.43014      -6.2419      -9.5395    1429.43014      -6.2419      -9.5395
   1429.41488      -5.6477      -9.4672    1429.41488      -5.6477      -9.4672
   1429.39962      -5.9412      -9.0125    1429.39962      -5.9412      -9.0125
   1429.38437      -6.2157      -9.2995    1429.38437      -6.2157      -9.2995
   1429.36911      -5.9826      -9.0402    1429.36911      -5.9826      -9.0402
   1429.35385      -5.4233      -8.7968    1429.35385      -5.4233      -8.7968
   1429.33859      -6.1715      -9.4020    1429.33859      -6.1715      -9.4020
   1429.32333      -5.6033      -8.7040    1429.32333      -5.6033      -8.7040
   1429.30807      -5.9426      -9.2832    1429.30807      -5.9426      -9.2832
   1429.29281      -5.4303      -9.4418    1429.29281      -5.4303      -9.4418
   1429.27755      -6.4194      -8.6721    1429.27755      -6.4194      -8.6721
   1429.26229      -5.8363      -8.7250    1429.26229      -5.8363      -8.7250
   1429.24704      -6.2418      -8.6415    1429.24704      -6.2418      -8.6415
   1429.23178      -6.3616      -9.8303    1429.23178      -6.3616      -9.8303
   1429.21652      -5.9011      -8.9195    1429.21652      -5.9011      -8.9195
   1429.20126      -5.7387      -9.3127    1429.20126      -5.7387      -9.3127
   1429.18600      -6.2974      -8.1807    1429.18600      -6.2974      -8.1807
   1429.17074      -5.8042      -9.3463    1429.17074      -5.8042      -9.3463
   1429.15548      -6.0824      -8.0946    1429.15548      -6.0824      -8.0946
   1429.14022      -6.0640      -9.5687    1429.14022      -6.0640      -9.5687
   1429.12497      -5.5126      -9.2643    1429.12497      -5.5126      -9.2643
   1429.10971      -6.3923      -9.1635    1429.10971      -6.3923      -9.1635
   1429.09445      -5.7693      -9.2863    1429.09445      -5.7693      -9.2863
   1429.07919      -5.8709      -9.3151    1429.07919      -5.8709      -9.3151
   1429.06393      -5.8936      -9.4483    1429.06393      -5.8936      -9.4483
   1429.04867      -6.5802      -9.4366    1429.04867      -6.5802      -9.4366
   1429.03341      -5.6631      -9.5040    1429.03341      -5.6631      -9.5040
   1429.01815      -6.6393      -9.3750    1429.01815      -6.6393      -9.3750
   1429.00290      -6.9093      -9.7604    1429.00290      -6.9093      -9.7604
   1428.98764      -5.7006      -8.8543    1428.98764      -5.7006      -8.8543
   1428.97238      -6.3281      -9.1042    1428.97238      -6.3281      -9.1042
   1428.95712      -6.5975      -9.3022    1428.95712      -6.5975      -9.3022
   1428.94186      -6.8622      -8.4047    1428.94186      -6.8622      -8.4047
   1428.92660      -5.2567      -8.8525    1428.92660      -5.2567      -8.8525
   1428.91134      -5.5946      -8.8325    1428.91134      -5.5946      -8.8325
   1428.89608      -5.9918      -8.8978    1428.89608      -5.9918      -8.8978
   1428.88083      -5.9814      -8.5431    1428.88083      -5.9814      -8.5431
   1428.86557      -6.5887      -9.4398    1428.86557      -6.5887      -9.4398
   1428.85031      -6.6224     -10.1464    1428.85031      -6.6224     -10.1464
   1428.83505      -6.3878      -8.6332    1428.83505      -6.3878      -8.6332
   1428.81979      -5.1594      -9.5007    1428.81979      -5.1594      -9.5007
   1428.80453      -5.4495      -8.8549    1428.80453      -5.4495      -8.8549
   1428.78927      -5.8149      -8.5071    1428.78927      -5.8149      -8.5071
   1428.77401      -5.5132      -8.6747    1428.77401      -5.5132      -8.6747
   1428.75875      -6.3801      -9.2385    1428.75875      -6.3801      -9.2385
   1428.74350      -5.8774      -8.7151    1428.74350      -5.8774      -8.7151
   1428.72824      -6.0289      -9.4785    1428.72824      -6.0289      -9.4785
   1428.71298      -5.7230      -9.9233    1428.71298      -5.7230      -9.9233
   1428.69772      -6.6155      -9.3135    1428.69772      -6.6155      -9.3135
   1428.68246      -5.8883      -8.6806    1428.68246      -5.8883      -8.6806
   1428.66720      -6.3384      -9.5314    1428.66720      -6.3384      -9.5314
   1428.65194      -6.1229      -9.8674    1428.65194      -6.1229      -9.8674
   1428.63668      -5.2659      -8.7814    1428.63668      -5.2659      -8.7814
   1428.62143      -5.5929      -9.1122    1428.62143      -5.5929      -9.1122
   1428.60617      -5.8987      -8.6059    1428.60617      -5.8987      -8.6059
   1428.59091      -5.8534      -8.9854    1428.59091      -5.8534      -8.9854
   1428.57565      -6.3953      -8.8333    1428.57565      -6.3953      -8.8333
   1428.56039      -5.7736      -8.6998    1428.56039      -5.7736      -8.6998
   1428.54513      -6.3429      -8.3753    1428.54513      -6.3429      -8.3753
   1428.52987      -6.4899      -8.6615    1428.52987      -6.4899      -8.6615
   1428.51461      -6.7503      -9.5291    1428.51461      -6.7503      -9.5291
   1428.49936      -5.9526      -8.9363    1428.49936      -5.9526      -8.9363
   1428.48410      -5.9371      -8.8646    1428.48410      -5.9371      -8.8646
   1428.46884      -6.5151      -8.7883    1428.46884      -6.5151      -8.7883
   1428.45358      -6.3532      -8.8036    1428.45358      -6.3532      -8.8036
   1428.43832      -5.6918      -8.4649    1428.43832      -5.6918      -8.4649
   1428.42306      -6.2336      -8.6842    1428.42306      -6.2336      -8.6842
   1428.40780      -5.9906      -8.9328    1428.40780      -5.9906      -8.9328
   1428.39254      -5.4423      -8.7072    1428.39254      -5.4423      -8.7072
   1428.37729      -6.1365      -9.3920    1428.37729      -6.1365      -9.3920
   1428.36203      -5.9112      -8.7896    1428.36203      -5.9112      -8.7896
   1428.34677      -5.5521      -9.8872    1428.34677      -5.5521      -9.8872
   1428.33151      -5.8898      -8.9307    1428.33151      -5.8898      -8.9307
   1428.31625      -6.0492      -8.9832    1428.31625      -6.0492      -8.9832
   1428.30099      -6.4055      -9.3748    1428.30099      -6.4055      -9.3748
   1428.28573      -6.2133      -9.1579    1428.28573      -6.2133      -9.1579
   1428.27047      -5.9886      -9.0837    1428.27047      -5.9886      -9.0837
   1428.25521      -6.1522      -9.3147    1428.25521      -6.1522      -9.3147
   1428.23996      -5.5894      -9.6396    1428.23996      -5.5894      -9.6396
   1428.22470      -6.9882      -9.5546    1428.22470      -6.9882      -9.5546
   1428.20944      -6.7716      -9.1490    1428.20944      -6.7716      -9.1490
   1428.19418      -6.5716      -8.7383    1428.19418      -6.5716      -8.7383
   1428.17892      -6.6032      -9.5105    1428.17892      -6.6032      -9.5105
   1428.16366      -6.5448      -8.8807    1428.16366      -6.5448      -8.8807
   1428.14840      -6.2769      -9.1757    1428.14840      -6.2769      -9.1757
   1428.13314      -6.7659      -8.8658    1428.13314      -6.7659      -8.8658
   1428.11789      -6.4484      -8.9373    1428.11789      -6.4484      -8.9373
   1428.10263      -5.8005      -8.5626    1428.10263      -5.8005      -8.5626
   1428.08737      -6.4666      -9.0572    1428.08737      -6.4666      -9.0572
   1428.07211      -3.1955      -4.9593    1428.07211      -3.1955      -4.9593
   1428.05685      -6.3615      -9.2068    1428.05685      -6.3615      -9.2068
   1428.04159      -5.9394      -9.3388    1428.04159      -5.9394      -9.3388
   1428.02633      -6.3026      -9.1714    1428.02633      -6.3026      -9.1714
   1428.01107      -6.2514      -8.8544    1428.01107      -6.2514      -8.8544
   1427.99582      -5.9631      -9.2354    1427.99582      -5.9631      -9.2354
   1427.98056      -6.6102      -9.8715    1427.98056      -6.6102      -9.8715
   1427.96530      -5.9102      -9.0468    1427.96530      -5.9102      -9.0468
   1427.95004      -6.6078      -9.0629    1427.95004      -6.6078      -9.0629
   1427.93478      -6.6062      -9.2254    1427.93478      -6.6062      -9.2254
   1427.91952      -6.6387      -8.3053    1427.91952      -6.6387      -8.3053
   1427.90426      -6.7139      -8.8894    1427.90426      -6.7139      -8.8894
   1427.88900      -6.9231      -8.9979    1427.88900      -6.9231      -8.9979
   1427.87375      -6.9939      -9.5534    1427.87375      -6.9939      -9.5534
   1427.85849      -6.5377      -9.1788    1427.85849      -6.5377      -9.1788
   1427.84323      -6.7709      -8.4685    1427.84323      -6.7709      -8.4685
   1427.82797      -6.6987      -9.5075    1427.82797      -6.6987      -9.5075
   1427.81271      -6.2700      -8.9049    1427.81271      -6.2700      -8.9049
   1427.79745      -6.3369      -8.2559    1427.79745      -6.3369      -8.2559
   1427.78219      -5.9561      -8.3775    1427.78219      -5.9561      -8.3775
   1427.76693      -7.0291      -9.1854    1427.76693      -7.0291      -9.1854
   1427.75167      -7.2131      -8.8171    1427.75167      -7.2131      -8.8171
   1427.73642      -6.6519      -8.3326    1427.73642      -6.6519      -8.3326
   1427.72116      -7.0292      -9.7185    1427.72116      -7.0292      -9.7185
   1427.70590      -6.9948      -9.0960    1427.70590      -6.9948      -9.0960
   1427.69064      -6.3031      -8.9068    1427.69064      -6.3031      -8.9068
   1427.67538      -6.5501      -8.4969    1427.67538      -6.5501      -8.4969
   1427.66012      -6.9875      -8.6399    1427.66012      -6.9875      -8.6399
   1427.64486      -6.7366      -8.3521    1427.64486      -6.7366      -8.3521
   1427.62960      -6.4750      -8.3631    1427.62960      -6.4750      -8.3631
   1427.61435      -6.8612      -9.5721    1427.61435      -6.8612      -9.5721
   1427.59909      -5.6973      -8.7711    1427.59909      -5.6973      -8.7711
   1427.58383      -7.3514      -9.1004    1427.58383      -7.3514      -9.1004
   1427.56857      -6.3899      -8.1516    1427.56857      -6.3899      -8.1516
   1427.55331      -6.3976      -7.7739    1427.55331      -6.3976      -7.7739
   1427.53805      -6.5986      -9.0507    1427.53805      -6.5986      -9.0507
   1427.52279      -6.5371      -8.1165    1427.52279      -6.5371      -8.1165
   1427.50753      -6.9422      -8.4415    1427.50753      -6.9422      -8.4415
   1427.49228      -6.4140      -7.5539    1427.49228      -6.4140      -7.5539
   1427.47702      -6.2188      -8.8984    1427.47702      -6.2188      -8.8984
   1427.46176      -6.8900      -8.6616    1427.46176      -6.8900      -8.6616
   1427.44650      -7.0213      -9.0354    1427.44650      -7.0213      -9.0354
   1427.43124      -6.6488      -8.4711    1427.43124      -6.6488      -8.4711
   1427.41598      -6.8870      -7.9822    1427.41598      -6.8870      -7.9822
   1427.40072      -6.8284      -8.8942    1427.40072      -6.8284      -8.8942
   1427.38546      -6.6083      -8.4337    1427.38546      -6.6083      -8.4337
   1427.37021      -7.2049      -8.2898    1427.37021      -7.2049      -8.2898
   1427.35495      -6.5894      -7.4140    1427.35495      -6.5894      -7.4140
   1427.33969      -7.1943      -8.0279    1427.33969      -7.1943      -8.0279
   1427.32443      -6.9361      -8.6974    1427.32443      -6.9361      -8.6974
   1427.30917      -7.1909      -8.8916    1427.30917      -7.1909      -8.8916
   1427.29391      -6.9866      -7.8557    1427.29391      -6.9866      -7.8557
   1427.27865      -7.2393      -8.5593    1427.27865      -7.2393      -8.5593
   1427.26339      -7.5484      -9.2330    1427.26339      -7.5484      -9.2330
   1427.24813      -7.1880      -8.3747    1427.24813      -7.1880      -8.3747
   1427.23288      -7.2775      -7.6984    1427.23288      -7.2775      -7.6984
   1427.21762      -6.8482      -8.5176    1427.21762      -6.8482      -8.5176
   1427.20236      -7.5748      -7.8547    1427.20236      -7.5748      -7.8547
   1427.18710      -7.3351      -8.2665    1427.18710      -7.3351      -8.2665
   1427.17184      -7.8091      -7.9852    1427.17184      -7.8091      -7.9852
   1427.15658      -7.3488      -8.0091    1427.15658      -7.3488      -8.0091
   1427.14132      -6.4764      -8.2176    1427.14132      -6.4764      -8.2176
   1427.12606      -7.6138      -8.9395    1427.12606      -7.6138      -8.9395
   1427.11081      -7.7208      -8.3291    1427.11081      -7.7208      -8.3291
   1427.09555      -6.9779      -7.9792    1427.09555      -6.9779      -7.9792
   1427.08029      -7.1289      -8.5078    1427.08029      -7.1289      -8.5078
   1427.06503      -7.1994      -7.7126    1427.06503      -7.1994      -7.7126
   1427.04977      -7.0262      -8.0217    1427.04977      -7.0262      -8.0217
   1427.03451      -6.8306      -8.2705    1427.03451      -6.8306      -8.2705
   1427.01925      -7.5598      -8.9164    1427.01925      -7.5598      -8.9164
   1427.00399      -7.6929      -7.8813    1427.00399      -7.6929      -7.8813
   1426.98874      -7.8849      -7.1610    1426.98874      -7.8849      -7.1610
   1426.97348      -6.7798      -7.4280    1426.97348      -6.7798      -7.4280
   1426.95822      -7.2741      -8.5633    1426.95822      -7.2741      -8.5633
   1426.94296      -7.4615      -8.0695    1426.94296      -7.4615      -8.0695
   1426.92770      -7.1019      -8.1237    1426.92770      -7.1019      -8.1237
   1426.91244      -6.8411      -8.1099    1426.91244      -6.8411      -8.1099
   1426.89718      -7.9894      -7.8734    1426.89718      -7.9894      -7.8734
   1426.88192      -7.6798      -8.3784    1426.88192      -7.6798      -8.3784
   1426.86667      -7.6713      -8.1525    1426.86667      -7.6713      -8.1525
   1426.85141      -7.4700      -7.3342    1426.85141      -7.4700      -7.3342
   1426.83615      -7.8446      -7.3918    1426.83615      -7.8446      -7.3918
   1426.82089      -7.5725      -7.3011    1426.82089      -7.5725      -7.3011
   1426.80563      -7.9202      -7.9638    1426.80563      -7.9202      -7.9638
   1426.79037      -7.8418      -7.2829    1426.79037      -7.8418      -7.2829
   1426.77511      -7.4925      -7.3165    1426.77511      -7.4925      -7.3165
   1426.75985      -7.0772      -7.7292    1426.75985      -7.0772      -7.7292
   1426.74459      -7.2399      -7.5925    1426.74459      -7.2399      -7.5925
   1426.72934      -7.9660      -7.9003    1426.72934      -7.9660      -7.9003
   1426.71408      -7.6917      -7.2937    1426.71408      -7.6917      -7.2937
   1426.69882      -7.7780      -8.2291    1426.69882      -7.7780      -8.2291
   1426.68356      -7.3878      -7.8021    1426.68356      -7.3878      -7.8021
   1426.66830      -7.4108      -6.6536    1426.66830      -7.4108      -6.6536
   1426.65304      -7.5790      -8.3132    1426.65304      -7.5790      -8.3132
   1426.63778      -7.1907      -7.9248    1426.63778      -7.1907      -7.9248
   1426.62252      -7.3448      -7.6894    1426.62252      -7.3448      -7.6894
   1426.60727      -7.8940      -7.1527    1426.60727      -7.8940      -7.1527
   1426.59201      -7.7784      -8.2278    1426.59201      -7.7784      -8.2278
   1426.57675      -7.6733      -7.5156    1426.57675      -7.6733      -7.5156
   1426.56149      -7.9711      -8.4412    1426.56149      -7.9711      -8.4412
   1426.54623      -7.6149      -7.6665    1426.54623      -7.6149      -7.6665
   1426.53097      -7.2533      -7.7525    1426.53097      -7.2533      -7.7525
   1426.51571      -7.3789      -8.2766    1426.51571      -7.3789      -8.2766
   1426.50045      -7.4252      -7.4302    1426.50045      -7.4252      -7.4302
   1426.48520      -7.0866      -7.7187    1426.48520      -7.0866      -7.7187
   1426.46994      -7.8094      -8.0593    1426.46994      -7.8094      -8.0593
   1426.45468      -7.6678      -7.7123    1426.45468      -7.6678      -7.7123
   1426.43942      -7.7074      -7.9278    1426.43942      -7.7074      -7.9278
   1426.42416      -7.6582      -7.6276    1426.42416      -7.6582      -7.6276
   1426.40890      -7.1471      -7.7603    1426.40890      -7.1471      -7.7603
   1426.39364      -7.0101      -8.4014    1426.39364      -7.0101      -8.4014
   1426.37838      -7.8273      -7.9314    1426.37838      -7.8273      -7.9314
   1426.36312      -7.3301      -7.9106    1426.36312      -7.3301      -7.9106
   1426.34787      -7.3164      -8.1460    1426.34787      -7.3164      -8.1460
   1426.33261      -6.6348      -7.2203    1426.33261      -6.6348      -7.2203
   1426.31735      -7.2402      -8.0084    1426.31735      -7.2402      -8.0084
   1426.30209      -7.7655      -7.1734    1426.30209      -7.7655      -7.1734
   1426.28683      -7.7260      -8.1096    1426.28683      -7.7260      -8.1096
   1426.27157      -8.3740      -6.9413    1426.27157      -8.3740      -6.9413
   1426.25631      -8.2654      -7.7873    1426.25631      -8.2654      -7.7873
   1426.24105      -8.0494      -7.8357    1426.24105      -8.0494      -7.8357
   1426.22580      -7.8328      -7.3596    1426.22580      -7.8328      -7.3596
   1426.21054      -7.0075      -7.3228    1426.21054      -7.0075      -7.3228
   1426.19528      -8.4458      -7.7753    1426.19528      -8.4458      -7.7753
   1426.18002      -6.9582      -7.5231    1426.18002      -6.9582      -7.5231
   1426.16476      -8.4257      -6.1291    1426.16476      -8.4257      -6.1291
   1426.14950      -7.6783      -6.6891    1426.14950      -7.6783      -6.6891
   1426.13424      -7.9044      -7.3766    1426.13424      -7.9044      -7.3766
   1426.11898      -8.7268      -7.3461    1426.11898      -8.7268      -7.3461
   1426.10373      -7.6535      -7.1574    1426.10373      -7.6535      -7.1574
   1426.08847      -7.7223      -6.7864    1426.08847      -7.7223      -6.7864
   1426.07321      -7.7284      -6.8528    1426.07321      -7.7284      -6.8528
   1426.05795      -8.7114      -7.7818    1426.05795      -8.7114      -7.7818
   1426.04269      -7.7870      -6.8844    1426.04269      -7.7870      -6.8844
   1426.02743      -7.6601      -7.3294    1426.02743      -7.6601      -7.3294
   1426.01217      -7.5306      -7.3968    1426.01217      -7.5306      -7.3968
   1425.99691      -6.7518      -7.1027    1425.99691      -6.7518      -7.1027
   1425.98166      -7.8605      -6.5994    1425.98166      -7.8605      -6.5994
   1425.96640      -7.6813      -7.9555    1425.96640      -7.6813      -7.9555
   1425.95114      -8.2649      -7.6424    1425.95114      -8.2649      -7.6424
   1425.93588      -7.8429      -6.4674    1425.93588      -7.8429      -6.4674
   1425.92062      -8.5627      -7.4307    1425.92062      -8.5627      -7.4307
   1425.90536      -7.7352      -8.1755    1425.90536      -7.7352      -8.1755
   1425.89010      -7.8149      -6.8483    1425.89010      -7.8149      -6.8483
   1425.87484      -6.8557      -6.4616    1425.87484      -6.8557      -6.4616
   1425.85958      -7.4255      -7.4593    1425.85958      -7.4255      -7.4593
   1425.84433      -7.7102      -7.4312    1425.84433      -7.7102      -7.4312
   1425.82907      -7.4452      -7.1534    1425.82907      -7.4452      -7.1534
   1425.81381      -7.3298      -7.5662    1425.81381      -7.3298      -7.5662
   1425.79855      -7.6825      -7.8787    1425.79855      -7.6825      -7.8787
   1425.78329      -7.4766      -7.3728    1425.78329      -7.4766      -7.3728
   1425.76803      -7.2673      -6.4830    1425.76803      -7.2673      -6.4830
   1425.75277      -7.3496      -6.9380    1425.75277      -7.3496      -6.9380
   1425.73751      -7.7965      -7.5952    1425.73751      -7.7965      -7.5952
   1425.72226      -7.6578      -6.9883    1425.72226      -7.6578      -6.9883
   1425.70700      -7.5987      -7.2644    1425.70700      -7.5987      -7.2644
   1425.69174      -7.8729      -7.5589    1425.69174      -7.8729      -7.5589
   1425.67648      -7.8324      -7.0648    1425.67648      -7.8324      -7.0648
   1425.66122      -8.1775      -7.2585    1425.66122      -8.1775      -7.2585
   1425.64596      -7.9534      -7.7568    1425.64596      -7.9534      -7.7568
   1425.63070      -7.5946      -6.9643    1425.63070      -7.5946      -6.9643
   1425.61544      -8.0870      -6.6294    1425.61544      -8.0870      -6.6294
   1425.60019      -7.4909      -6.1385    1425.60019      -7.4909      -6.1385
   1425.58493      -8.2376      -7.1172    1425.58493      -8.2376      -7.1172
   1425.56967      -7.4762      -7.5776    1425.56967      -7.4762      -7.5776
   1425.55441      -8.5780      -7.2108    1425.55441      -8.5780      -7.2108
   1425.53915      -7.6663      -7.2151    1425.53915      -7.6663      -7.2151
   1425.52389      -7.2283      -7.3537    1425.52389      -7.2283      -7.3537
   1425.50863      -7.9611      -7.2265    1425.50863      -7.9611      -7.2265
   1425.49337      -8.2456      -6.7361    1425.49337      -8.2456      -6.7361
   1425.47812      -7.5653      -7.2614    1425.47812      -7.5653      -7.2614
   1425.46286      -8.0071      -7.5740    1425.46286      -8.0071      -7.5740
   1425.44760      -7.2518      -7.1614    1425.44760      -7.2518      -7.1614
   1425.43234      -7.9691      -7.4105    1425.43234      -7.9691      -7.4105
   1425.41708      -7.8756      -7.1551    1425.41708      -7.8756      -7.1551
   1425.40182      -7.7168      -6.9730    1425.40182      -7.7168      -6.9730
   1425.38656      -7.7840      -6.8724    1425.38656      -7.7840      -6.8724
   1425.37130      -7.7697      -6.4241    1425.37130      -7.7697      -6.4241
   1425.35604      -7.4565      -6.0705    1425.35604      -7.4565      -6.0705
   1425.34079      -8.2818      -6.2434    1425.34079      -8.2818      -6.2434
   1425.32553      -7.9336      -6.3184    1425.32553      -7.9336      -6.3184
   1425.31027      -8.1435      -6.6204    1425.31027      -8.1435      -6.6204
   1425.29501      -7.4586      -6.4994    1425.29501      -7.4586      -6.4994
   1425.27975      -8.2806      -6.5506    1425.27975      -8.2806      -6.5506
   1425.26449      -8.1640      -5.5968    1425.26449      -8.1640      -5.5968
   1425.24923      -8.2485      -7.0775    1425.24923      -8.2485      -7.0775
   1425.23397      -8.2685      -6.2031    1425.23397      -8.2685      -6.2031
   1425.21872      -7.6093      -6.6151    1425.21872      -7.6093      -6.6151
   1425.20346      -8.0727      -6.7717    1425.20346      -8.0727      -6.7717
   1425.18820      -8.2399      -7.3214    1425.18820      -8.2399      -7.3214
   1425.17294      -8.6114      -6.3218    1425.17294      -8.6114      -6.3218
   1425.15768      -8.9378      -6.9381    1425.15768      -8.9378      -6.9381
   1425.14242      -8.1810      -6.9193    1425.14242      -8.1810      -6.9193
   1425.12716      -8.2182      -6.2132    1425.12716      -8.2182      -6.2132
   1425.11190      -7.8738      -6.7037    1425.11190      -7.8738      -6.7037
   1425.09665      -8.3562      -6.6359    1425.09665      -8.3562      -6.6359
   1425.08139      -8.0682      -7.1093    1425.08139      -8.0682      -7.1093
   1425.06613      -7.9558      -6.0376    1425.06613      -7.9558      -6.0376
   1425.05087      -8.7289      -6.1842    1425.05087      -8.7289      -6.1842
   1425.03561      -7.3904      -6.5049    1425.03561      -7.3904      -6.5049
   1425.02035      -8.4045      -6.5894    1425.02035      -8.4045      -6.5894
   1425.00509      -8.2952      -7.2595    1425.00509      -8.2952      -7.2595
   1424.98983      -8.5195      -6.7567    1424.98983      -8.5195      -6.7567
   1424.97458      -7.8892      -6.7301    1424.97458      -7.8892      -6.7301
   1424.95932      -8.4005      -6.7126    1424.95932      -8.4005      -6.7126
   1424.94406      -8.6974      -6.6423    1424.94406      -8.6974      -6.6423
   1424.92880      -8.3098      -6.2359    1424.92880      -8.3098      -6.2359
   1424.91354      -8.5880      -6.3226    1424.91354      -8.5880      -6.3226
   1424.89828      -8.3979      -6.7692    1424.89828      -8.3979      -6.7692
   1424.88302      -8.0844      -6.9244    1424.88302      -8.0844      -6.9244
   1424.86776      -7.7152      -6.8297    1424.86776      -7.7152      -6.8297
   1424.85250      -8.0289      -6.3857    1424.85250      -8.0289      -6.3857
   1424.83725      -8.3681      -6.0692    1424.83725      -8.3681      -6.0692
   1424.82199      -7.7192      -6.4138    1424.82199      -7.7192      -6.4138
   1424.80673      -8.1529      -5.9475    1424.80673      -8.1529      -5.9475
   1424.79147      -8.1423      -6.2939    1424.79147      -8.1423      -6.2939
   1424.77621      -7.9779      -6.1254    1424.77621      -7.9779      -6.1254
   1424.76095      -7.7538      -6.6681    1424.76095      -7.7538      -6.6681
   1424.74569      -8.7780      -6.6100    1424.74569      -8.7780      -6.6100
   1424.73043      -8.0787      -6.8189    1424.73043      -8.0787      -6.8189
   1424.71518      -8.6716      -6.9194    1424.71518      -8.6716      -6.9194
   1424.69992      -8.9502      -6.8373    1424.69992      -8.9502      -6.8373
   1424.68466      -7.4993      -6.2177    1424.68466      -7.4993      -6.2177
   1424.66940      -7.6610      -6.4927    1424.66940      -7.6610      -6.4927
   1424.65414      -8.1025      -6.4619    1424.65414      -8.1025      -6.4619
   1424.63888      -8.3812      -6.6671    1424.63888      -8.3812      -6.6671
   1424.62362      -8.3379      -6.6160    1424.62362      -8.3379      -6.6160
   1424.60836      -8.2064      -7.0568    1424.60836      -8.2064      -7.0568
   1424.59311      -8.5161      -5.9637    1424.59311      -8.5161      -5.9637
   1424.57785      -8.8191      -7.0999    1424.57785      -8.8191      -7.0999
   1424.56259      -7.8620      -6.5976    1424.56259      -7.8620      -6.5976
   1424.54733      -7.8453      -6.1137    1424.54733      -7.8453      -6.1137
   1424.53207      -8.5949      -7.4761    1424.53207      -8.5949      -7.4761
   1424.51681      -7.7774      -6.0003    1424.51681      -7.7774      -6.0003
   1424.50155      -8.8195      -6.8326    1424.50155      -8.8195      -6.8326
   1424.48629      -9.1820      -7.1282    1424.48629      -9.1820      -7.1282
   1424.47104      -8.8577      -6.7093    1424.47104      -8.8577      -6.7093
   1424.45578      -8.7011      -7.3436    1424.45578      -8.7011      -7.3436
   1424.44052      -8.3649      -7.5317    1424.44052      -8.3649      -7.5317
   1424.42526      -7.0372      -5.8500    1424.42526      -7.0372      -5.8500
   1424.41000      -7.2758      -6.3290    1424.41000      -7.2758      -6.3290
   1424.39474      -7.4266      -6.8079    1424.39474      -7.4266      -6.8079
   1424.37948      -9.0774      -8.5045    1424.37948      -9.0774      -8.5045
   1424.36422      -8.9633      -7.7046    1424.36422      -8.9633      -7.7046
   1424.34896      -8.0860      -7.8467    1424.34896      -8.0860      -7.8467
   1424.33371      -8.4231      -6.7553    1424.33371      -8.4231      -6.7553
   1424.31845      -7.9304      -6.9368    1424.31845      -7.9304      -6.9368
   1424.30319      -8.2787      -6.9329    1424.30319      -8.2787      -6.9329
   1424.28793      -8.4254      -7.5007    1424.28793      -8.4254      -7.5007
   1424.27267      -8.3516      -6.6890    1424.27267      -8.3516      -6.6890
   1424.25741      -8.5180      -6.5540    1424.25741      -8.5180      -6.5540
   1424.24215      -8.5925      -5.9240    1424.24215      -8.5925      -5.9240
   1424.22689      -8.3490      -7.0221    1424.22689      -8.3490      -7.0221
   1424.21164      -7.7803      -6.7827    1424.21164      -7.7803      -6.7827
   1424.19638      -8.4556      -7.2772    1424.19638      -8.4556      -7.2772
   1424.18112      -8.7429      -7.1114    1424.18112      -8.7429      -7.1114
   1424.16586      -8.7278      -6.0409    1424.16586      -8.7278      -6.0409
   1424.15060      -7.7782      -6.7494    1424.15060      -7.7782      -6.7494
   1424.13534      -8.5964      -7.6555    1424.13534      -8.5964      -7.6555
   1424.12008      -8.9565      -6.8374    1424.12008      -8.9565      -6.8374
   1424.10482      -8.9300      -6.8836    1424.10482      -8.9300      -6.8836
   1424.08957      -8.3225      -6.3299    1424.08957      -8.3225      -6.3299
   1424.07431      -8.5754      -7.1810    1424.07431      -8.5754      -7.1810
   1424.05905      -8.3869      -7.0849    1424.05905      -8.3869      -7.0849
   1424.04379      -8.7452      -7.0847    1424.04379      -8.7452      -7.0847
   1424.02853      -9.2473      -6.9788    1424.02853      -9.2473      -6.9788
   1424.01327      -7.9959      -6.9054    1424.01327      -7.9959      -6.9054
   1423.99801      -7.7252      -7.3102    1423.99801      -7.7252      -7.3102
   1423.98275      -8.8309      -6.7815    1423.98275      -8.8309      -6.7815
   1423.96750      -8.2561      -7.3749    1423.96750      -8.2561      -7.3749
   1423.95224      -7.6121      -7.2966    1423.95224      -7.6121      -7.2966
   1423.93698      -8.1604      -6.6972    1423.93698      -8.1604      -6.6972
   1423.92172      -8.3215      -7.0043    1423.92172      -8.3215      -7.0043
   1423.90646      -8.1941      -6.5045    1423.90646      -8.1941      -6.5045
   1423.89120      -8.2969      -6.4268    1423.89120      -8.2969      -6.4268
   1423.87594      -8.7265      -6.3326    1423.87594      -8.7265      -6.3326
   1423.86068      -8.1053      -6.3650    1423.86068      -8.1053      -6.3650
   1423.84542      -9.0446      -7.1090    1423.84542      -9.0446      -7.1090
   1423.83017      -8.3195      -6.4580    1423.83017      -8.3195      -6.4580
   1423.81491      -8.2493      -7.1975    1423.81491      -8.2493      -7.1975
   1423.79965      -8.9457      -7.2237    1423.79965      -8.9457      -7.2237
   1423.78439      -8.4551      -7.4182    1423.78439      -8.4551      -7.4182
   1423.76913      -8.6518      -7.1221    1423.76913      -8.6518      -7.1221
   1423.75387      -8.7775      -7.2551    1423.75387      -8.7775      -7.2551
   1423.73861      -9.2865      -7.0566    1423.73861      -9.2865      -7.0566
   1423.72335      -8.6104      -7.0197    1423.72335      -8.6104      -7.0197
   1423.70810      -8.7955      -7.3446    1423.70810      -8.7955      -7.3446
   1423.69284      -8.5601      -7.2588    1423.69284      -8.5601      -7.2588
   1423.67758      -9.0192      -6.9136    1423.67758      -9.0192      -6.9136
   1423.66232      -8.2864      -7.1064    1423.66232      -8.2864      -7.1064
   1423.64706      -8.1957      -6.3733    1423.64706      -8.1957      -6.3733
   1423.63180      -8.5696      -6.7980    1423.63180      -8.5696      -6.7980
   1423.61654      -8.7653      -6.9637    1423.61654      -8.7653      -6.9637
   1423.60128      -8.0544      -6.0474    1423.60128      -8.0544      -6.0474
   1423.58603      -8.4786      -6.6144    1423.58603      -8.4786      -6.6144
   1423.57077      -9.0315      -6.5837    1423.57077      -9.0315      -6.5837
   1423.55551      -8.3792      -6.6170    1423.55551      -8.3792      -6.6170
   1423.54025      -7.9776      -6.0481    1423.54025      -7.9776      -6.0481
   1423.52499      -8.8154      -6.9747    1423.52499      -8.8154      -6.9747
   1423.50973      -8.4624      -6.5368    1423.50973      -8.4624      -6.5368
   1423.49447      -8.5678      -6.0306    1423.49447      -8.5678      -6.0306
   1423.47921      -8.1941      -6.2994    1423.47921      -8.1941      -6.2994
   1423.46396      -8.3483      -6.2970    1423.46396      -8.3483      -6.2970
   1423.44870      -8.6741      -6.9433    1423.44870      -8.6741      -6.9433
   1423.43344      -8.7907      -6.4346    1423.43344      -8.7907      -6.4346
   1423.41818      -8.3309      -6.5086    1423.41818      -8.3309      -6.5086
   1423.40292      -8.7899      -6.7491    1423.40292      -8.7899      -6.7491
   1423.38766      -8.2356      -6.4860    1423.38766      -8.2356      -6.4860
   1423.37240      -8.5274      -7.0601    1423.37240      -8.5274      -7.0601
   1423.35714      -8.4500      -6.1715    1423.35714      -8.4500      -6.1715
   1423.34188      -8.5579      -5.8095    1423.34188      -8.5579      -5.8095
   1423.32663      -8.5892      -6.3594    1423.32663      -8.5892      -6.3594
   1423.31137      -8.2646      -6.3641    1423.31137      -8.2646      -6.3641
   1423.29611      -8.7705      -6.6645    1423.29611      -8.7705      -6.6645
   1423.28085      -8.5502      -6.9999    1423.28085      -8.5502      -6.9999
   1423.26559      -8.1967      -6.6530    1423.26559      -8.1967      -6.6530
   1423.25033      -8.7395      -7.1619    1423.25033      -8.7395      -7.1619
   1423.23507      -8.2526      -6.7680    1423.23507      -8.2526      -6.7680
   1423.21981      -8.3765      -6.5356    1423.21981      -8.3765      -6.5356
   1423.20456      -7.9161      -6.9548    1423.20456      -7.9161      -6.9548
   1423.18930      -8.3683      -6.9782    1423.18930      -8.3683      -6.9782
   1423.17404      -8.6430      -6.4741    1423.17404      -8.6430      -6.4741
   1423.15878      -8.0717      -6.2035    1423.15878      -8.0717      -6.2035
   1423.14352      -8.2052      -6.1517    1423.14352      -8.2052      -6.1517
   1423.12826      -7.6521      -6.3482    1423.12826      -7.6521      -6.3482
   1423.11300      -7.7860      -5.7303    1423.11300      -7.7860      -5.7303
   1423.09774      -7.6107      -5.6973    1423.09774      -7.6107      -5.6973
   1423.08249      -7.5754      -5.6567    1423.08249      -7.5754      -5.6567
   1423.06723      -7.4319      -5.5113    1423.06723      -7.4319      -5.5113
   1423.05197      -7.1915      -5.1414    1423.05197      -7.1915      -5.1414
   1423.03671      -7.0369      -5.3945    1423.03671      -7.0369      -5.3945
   1423.02145      -6.9562      -5.0455    1423.02145      -6.9562      -5.0455
   1423.00619      -6.3383      -5.6156    1423.00619      -6.3383      -5.6156
   1422.99093      -7.0567      -5.3036    1422.99093      -7.0567      -5.3036
   1422.97567      -6.1710      -4.3273    1422.97567      -6.1710      -4.3273
   1422.96042      -6.3005      -5.3371    1422.96042      -6.3005      -5.3371
   1422.94516      -6.4976      -4.2327    1422.94516      -6.4976      -4.2327
   1422.92990      -6.2287      -4.2760    1422.92990      -6.2287      -4.2760
   1422.91464      -6.8027      -5.0458    1422.91464      -6.8027      -5.0458
   1422.89938      -5.6838      -3.8871    1422.89938      -5.6838      -3.8871
   1422.88412      -6.5723      -4.5553    1422.88412      -6.5723      -4.5553
   1422.86886      -6.6303      -4.8453    1422.86886      -6.6303      -4.8453
   1422.85360      -6.1985      -4.0417    1422.85360      -6.1985      -4.0417
   1422.83834      -6.7971      -5.0871    1422.83834      -6.7971      -5.0871
   1422.82309      -6.6496      -4.2672    1422.82309      -6.6496      -4.2672
   1422.80783      -6.4490      -4.5010    1422.80783      -6.4490      -4.5010
   1422.79257      -6.5542      -5.3262    1422.79257      -6.5542      -5.3262
   1422.77731      -6.6095      -4.2556    1422.77731      -6.6095      -4.2556
   1422.76205      -6.2060      -4.4707    1422.76205      -6.2060      -4.4707
   1422.74679      -6.9082      -4.1434    1422.74679      -6.9082      -4.1434
   1422.73153      -6.2092      -4.6085    1422.73153      -6.2092      -4.6085
   1422.71627      -6.4741      -4.1206    1422.71627      -6.4741      -4.1206
   1422.70102      -6.3183      -4.0093    1422.70102      -6.3183      -4.0093
   1422.68576      -5.9911      -3.4890    1422.68576      -5.9911      -3.4890
   1422.67050      -5.8358      -3.4594    1422.67050      -5.8358      -3.4594
   1422.65524      -5.4202      -3.7349    1422.65524      -5.4202      -3.7349
   1422.63998      -5.1947      -3.9177    1422.63998      -5.1947      -3.9177
   1422.62472      -4.0985      -2.5120    1422.62472      -4.0985      -2.5120
   1422.60946      -4.2993      -1.9855    1422.60946      -4.2993      -1.9855
   1422.59420      -4.4420      -1.9260    1422.59420      -4.4420      -1.9260
   1422.57895      -4.1494      -3.0209    1422.57895      -4.1494      -3.0209
   1422.56369      -4.1072      -2.6999    1422.56369      -4.1072      -2.6999
   1422.54843      -4.3686      -2.1244    1422.54843      -4.3686      -2.1244
   1422.53317      -4.3811      -2.5117    1422.53317      -4.3811      -2.5117
   1422.51791      -3.7810      -1.9295    1422.51791      -3.7810      -1.9295
   1422.50265      -3.7402      -1.4167    1422.50265      -3.7402      -1.4167
   1422.48739      -3.6873      -2.1332    1422.48739      -3.6873      -2.1332
   1422.47213      -3.0760      -1.1018    1422.47213      -3.0760      -1.1018
   1422.45687      -3.1464      -0.8265    1422.45687      -3.1464      -0.8265
   1422.44162      -2.7907       0.0788    1422.44162      -2.7907       0.0788
   1422.42636      -2.4771       0.3647    1422.42636      -2.4771       0.3647
   1422.41110      -2.5460       0.5700    1422.41110      -2.5460       0.5700
   1422.39584      -1.1095       1.6604    1422.39584      -1.1095       1.6604
   1422.38058      -1.4971       1.5894    1422.38058      -1.4971       1.5894
   1422.36532      -1.0572       1.6516    1422.36532      -1.0572       1.6516
   1422.35006      -0.6624       2.6167    1422.35006      -0.6624       2.6167
   1422.33480      -0.5873       1.1537    1422.33480      -0.5873       1.1537
   1422.31955      -0.8952       2.6293    1422.31955      -0.8952       2.6293
   1422.30429       0.0833       3.1974    1422.30429       0.0833       3.1974
   1422.28903       0.7447       3.7656    1422.28903       0.7447       3.7656
   1422.27377       1.2358       3.0109    1422.27377       1.2358       3.0109
   1422.25851       1.1878       3.7651    1422.25851       1.1878       3.7651
   1422.24325       2.0800       5.4340    1422.24325       2.0800       5.4340
   1422.22799       1.8928       5.1689    1422.22799       1.8928       5.1689
   1422.21273       3.0652       6.2099    1422.21273       3.0652       6.2099
   1422.19748       2.5426       6.1719    1422.19748       2.5426       6.1719
   1422.18222       3.2382       6.6297    1422.18222       3.2382       6.6297
   1422.16696       2.9147       6.9219    1422.16696       2.9147       6.9219
   1422.15170       2.9474       6.4407    1422.15170       2.9474       6.4407
   1422.13644       3.5239       9.0276    1422.13644       3.5239       9.0276
   1422.12118       4.0352       9.6339    1422.12118       4.0352       9.6339
   1422.10592       5.7162       9.0197    1422.10592       5.7162       9.0197
   1422.09066       5.0233      10.7880    1422.09066       5.0233      10.7880
   1422.07541       6.0492      10.6484    1422.07541       6.0492      10.6484
   1422.06015       5.9422      10.5834    1422.06015       5.9422      10.5834
   1422.04489       6.6794      11.5309    1422.04489       6.6794      11.5309
   1422.02963       6.8500      10.9715    1422.02963       6.8500      10.9715
   1422.01437       7.5602      12.4940    1422.01437       7.5602      12.4940
   1421.99911       7.7813      13.2989    1421.99911       7.7813      13.2989
   1421.98385       8.5590      12.8271    1421.98385       8.5590      12.8271
   1421.96859       8.3287      14.2766    1421.96859       8.3287      14.2766
   1421.95333       7.9637      13.0233    1421.95333       7.9637      13.0233
   1421.93808       7.8124      13.1295    1421.93808       7.8124      13.1295
   1421.92282       7.5707      13.1838    1421.92282       7.5707      13.1838
   1421.90756       7.6602      13.0029    1421.90756       7.6602      13.0029
   1421.89230       7.5755      12.4509    1421.89230       7.5755      12.4509
   1421.87704       6.8288      13.0110    1421.87704       6.8288      13.0110
   1421.86178       6.4964      12.1144    1421.86178       6.4964      12.1144
   1421.84652       6.6641      11.1431    1421.84652       6.6641      11.1431
   1421.83126       6.2581      11.6480    1421.83126       6.2581      11.6480
   1421.81601       6.2994      12.2497    1421.81601       6.2994      12.2497
   1421.80075       7.3675      12.6123    1421.80075       7.3675      12.6123
   1421.78549       7.0374      13.2331    1421.78549       7.0374      13.2331
   1421.77023       7.3763      12.7819    1421.77023       7.3763      12.7819
   1421.75497       7.7353      11.9628    1421.75497       7.7353      11.9628
   1421.73971       6.6333      11.7944    1421.73971       6.6333      11.7944
   1421.72445       6.5555      11.2952    1421.72445       6.5555      11.2952
   1421.70919       5.8869      11.0915    1421.70919       5.8869      11.0915
   1421.69394       5.2496      10.3595    1421.69394       5.2496      10.3595
   1421.67868       5.0592       9.0920    1421.67868       5.0592       9.0920
   1421.66342       4.6020       8.3628    1421.66342       4.6020       8.3628
   1421.64816       3.9825       7.5508    1421.64816       3.9825       7.5508
   1421.63290       3.3002       6.5338    1421.63290       3.3002       6.5338
   1421.61764       2.2876       6.4741    1421.61764       2.2876       6.4741
   1421.60238       2.3259       6.3671    1421.60238       2.3259       6.3671
   1421.58712       2.2836       5.0318    1421.58712       2.2836       5.0318
   1421.57187       1.8919       4.4599    1421.57187       1.8919       4.4599
   1421.55661       1.4186       4.4073    1421.55661       1.4186       4.4073
   1421.54135       0.3008       3.8673    1421.54135       0.3008       3.8673
   1421.52609       0.0108       3.3688    1421.52609       0.0108       3.3688
   1421.51083      -0.1000       2.9799    1421.51083      -0.1000       2.9799
   1421.49557      -0.7411       2.1338    1421.49557      -0.7411       2.1338
   1421.48031      -0.6105       2.0377    1421.48031      -0.6105       2.0377
   1421.46505      -1.3025       0.9921    1421.46505      -1.3025       0.9921
   1421.44979      -1.7317       1.5599    1421.44979      -1.7317       1.5599
   1421.43454      -1.9672       0.6702    1421.43454      -1.9672       0.6702
   1421.41928      -1.6923       1.6152    1421.41928      -1.6923       1.6152
   1421.40402      -2.0102       0.7067    1421.40402      -2.0102       0.7067
   1421.38876      -2.6221       0.2313    1421.38876      -2.6221       0.2313
   1421.37350      -2.2047      -0.4656    1421.37350      -2.2047      -0.4656
   1421.35824      -2.7715      -1.1600    1421.35824      -2.7715      -1.1600
   1421.34298      -3.6060      -1.3539    1421.34298      -3.6060      -1.3539
   1421.32772      -3.1550      -0.8462    1421.32772      -3.1550      -0.8462
   1421.31247      -4.5280      -0.9789    1421.31247      -4.5280      -0.9789
   1421.29721      -4.2387      -1.7828    1421.29721      -4.2387      -1.7828
   1421.28195      -5.0172      -1.4003    1421.28195      -5.0172      -1.4003
   1421.26669      -4.4688      -1.9911    1421.26669      -4.4688      -1.9911
   1421.25143      -4.8873      -2.1848    1421.25143      -4.8873      -2.1848
   1421.23617      -4.6801      -2.0274    1421.23617      -4.6801      -2.0274
   1421.22091      -5.6015      -2.1174    1421.22091      -5.6015      -2.1174
   1421.20565      -5.6703      -2.0167    1421.20565      -5.6703      -2.0167
   1421.19040      -5.8736      -2.5410    1421.19040      -5.8736      -2.5410
   1421.17514      -6.0669      -2.5510    1421.17514      -6.0669      -2.5510
   1421.15988      -5.2097      -2.0388    1421.15988      -5.2097      -2.0388
   1421.14462      -5.3498      -2.8822    1421.14462      -5.3498      -2.8822
   1421.12936      -5.5098      -2.8239    1421.12936      -5.5098      -2.8239
   1421.11410      -6.0080      -3.1610    1421.11410      -6.0080      -3.1610
   1421.09884      -5.5424      -3.3434    1421.09884      -5.5424      -3.3434
   1421.08358      -5.6027      -3.4486    1421.08358      -5.6027      -3.4486
   1421.06833      -5.5233      -3.2621    1421.06833      -5.5233      -3.2621
   1421.05307      -5.9902      -3.5957    1421.05307      -5.9902      -3.5957
   1421.03781      -5.6082      -3.3869    1421.03781      -5.6082      -3.3869
   1421.02255      -5.5056      -3.7658    1421.02255      -5.5056      -3.7658
   1421.00729      -5.3192      -3.4729    1421.00729      -5.3192      -3.4729
   1420.99203      -5.6529      -2.4990    1420.99203      -5.6529      -2.4990
   1420.97677      -4.9435      -2.8877    1420.97677      -4.9435      -2.8877
   1420.96151      -6.2472      -3.4745    1420.96151      -6.2472      -3.4745
   1420.94625      -5.9153      -3.0463    1420.94625      -5.9153      -3.0463
   1420.93100      -6.0868      -3.6943    1420.93100      -6.0868      -3.6943
   1420.91574      -5.4381      -3.1071    1420.91574      -5.4381      -3.1071
   1420.90048      -5.5844      -2.5558    1420.90048      -5.5844      -2.5558
   1420.88522      -6.3973      -3.6641    1420.88522      -6.3973      -3.6641
   1420.86996      -6.6078      -3.9411    1420.86996      -6.6078      -3.9411
   1420.85470      -6.3516      -3.7082    1420.85470      -6.3516      -3.7082
   1420.83944      -6.7866      -4.8398    1420.83944      -6.7866      -4.8398
   1420.82418      -7.0614      -5.0198    1420.82418      -7.0614      -5.0198
   1420.80893      -8.8635      -6.0034    1420.80893      -8.8635      -6.0034
   1420.79367     -10.1091      -8.0489    1420.79367     -10.1091      -8.0489
   1420.77841     -10.7739      -7.7878    1420.77841     -10.7739      -7.7878
   1420.76315     -10.0058      -6.9551    1420.76315     -10.0058      -6.9551
   1420.74789      -7.4758      -5.1618    1420.74789      -7.4758      -5.1618
   1420.73263      -6.2615      -3.7386    1420.73263      -6.2615      -3.7386
   1420.71737      -3.9282      -1.6511    1420.71737      -3.9282      -1.6511
   1420.70211      -0.7303       2.2255    1420.70211      -0.7303       2.2255
   1420.68686       3.1818       7.8087    1420.68686       3.1818       7.8087
   1420.67160       4.0589       7.9824    1420.67160       4.0589       7.9824
   1420.65634       1.8031       4.6566    1420.65634       1.8031       4.6566
   1420.64108       0.4354       3.4583    1420.64108       0.4354       3.4583
   1420.62582      -0.8090       1.5987    1420.62582      -0.8090       1.5987
   1420.61056      -0.0436       3.0949    1420.61056      -0.0436       3.0949
   1420.59530      -1.7513       0.9354    1420.59530      -1.7513       0.9354
   1420.58004      -5.8480      -2.2847    1420.58004      -5.8480      -2.2847
   1420.56479      -7.8269      -4.6750    1420.56479      -7.8269      -4.6750
   1420.54953      -6.8745      -4.1692    1420.54953      -6.8745      -4.1692
   1420.53427      -5.6758      -1.8968    1420.53427      -5.6758      -1.8968
   1420.51901      -6.3665      -3.5385    1420.51901      -6.3665      -3.5385
   1420.50375      13.9767      19.6468    1420.50375      13.9767      19.6468
   1420.48849      28.4477      35.8092    1420.48849      28.4477      35.8092
   1420.47323       8.3933      11.1553    1420.47323       8.3933      11.1553
   1420.45797     -11.5167     -10.9954    1420.45797     -11.5167     -10.9954
   1420.44271      -7.5549      -4.1702    1420.44271      -7.5549      -4.1702
   1420.42746      -7.1558      -3.6940    1420.42746      -7.1558      -3.6940
   1420.41220      -7.7901      -5.1400    1420.41220      -7.7901      -5.1400
   1420.39694      -8.3186      -4.8322    1420.39694      -8.3186      -4.8322
   1420.38168      -8.5750      -4.7337    1420.38168      -8.5750      -4.7337
   1420.36642      -8.8550      -5.4370    1420.36642      -8.8550      -5.4370
   1420.35116      -8.0794      -5.0644    1420.35116      -8.0794      -5.0644
   1420.33590      -8.1056      -5.1596    1420.33590      -8.1056      -5.1596
   1420.32064      -8.2502      -5.7109    1420.32064      -8.2502      -5.7109
   1420.30539      -8.1032      -4.6557    1420.30539      -8.1032      -4.6557
   1420.29013      -8.3004      -5.7539    1420.29013      -8.3004      -5.7539
   1420.27487      -8.1504      -5.5519    1420.27487      -8.1504      -5.5519
   1420.25961      -8.0551      -6.0537    1420.25961      -8.0551      -6.0537
   1420.24435      -8.6907      -6.4892    1420.24435      -8.6907      -6.4892
   1420.22909      -8.2505      -5.5630    1420.22909      -8.2505      -5.5630
   1420.21383      -8.5878      -5.0247    1420.21383      -8.5878      -5.0247
   1420.19857      -8.3406      -5.9467    1420.19857      -8.3406      -5.9467
   1420.18332      -8.3650      -5.8520    1420.18332      -8.3650      -5.8520
   1420.16806      -7.4594      -5.4382    1420.16806      -7.4594      -5.4382
   1420.15280      -7.7302      -4.6097    1420.15280      -7.7302      -4.6097
   1420.13754      -8.3201      -4.9371    1420.13754      -8.3201      -4.9371
   1420.12228      -8.3624      -4.7705    1420.12228      -8.3624      -4.7705
   1420.10702      -7.3023      -4.9575    1420.10702      -7.3023      -4.9575
   1420.09176      -6.7228      -5.2874    1420.09176      -6.7228      -5.2874
   1420.07650      -8.3840      -4.9580    1420.07650      -8.3840      -4.9580
   1420.06125      -7.4573      -5.4483    1420.06125      -7.4573      -5.4483
   1420.04599      -8.2450      -5.4024    1420.04599      -8.2450      -5.4024
   1420.03073      -8.2464      -5.3433    1420.03073      -8.2464      -5.3433
   1420.01547      -8.3763      -5.9566    1420.01547      -8.3763      -5.9566
   1420.00021      -8.1303      -5.0795    1420.00021      -8.1303      -5.0795
   1419.98495      -7.2013      -5.6664    1419.98495      -7.2013      -5.6664
   1419.96969      -7.4972      -4.9330    1419.96969      -7.4972      -4.9330
   1419.95443      -8.0773      -5.9260    1419.95443      -8.0773      -5.9260
   1419.93917      -8.2372      -5.0054    1419.93917      -8.2372      -5.0054
   1419.92392      -7.8867      -5.6467    1419.92392      -7.8867      -5.6467
   1419.90866      -7.6172      -5.5487    1419.90866      -7.6172      -5.5487
   1419.89340      -8.1578      -5.6837    1419.89340      -8.1578      -5.6837
   1419.87814      -7.5418      -5.0483    1419.87814      -7.5418      -5.0483
   1419.86288      -8.1639      -4.5498    1419.86288      -8.1639      -4.5498
   1419.84762      -7.1601      -5.0069    1419.84762      -7.1601      -5.0069
   1419.83236      -7.5762      -4.6239    1419.83236      -7.5762      -4.6239
   1419.81710      -7.6301      -5.1812    1419.81710      -7.6301      -5.1812
   1419.80185      -8.1372      -5.4481    1419.80185      -8.1372      -5.4481
   1419.78659      -8.1124      -5.0104    1419.78659      -8.1124      -5.0104
   1419.77133      -7.2543      -5.1578    1419.77133      -7.2543      -5.1578
   1419.75607      -7.5564      -6.0213    1419.75607      -7.5564      -6.0213
   1419.74081      -7.9721      -5.5424    1419.74081      -7.9721      -5.5424
   1419.72555      -7.9705      -5.4691    1419.72555      -7.9705      -5.4691
   1419.71029      -7.7460      -5.4374    1419.71029      -7.7460      -5.4374
   1419.69503      -8.1260      -6.5105    1419.69503      -8.1260      -6.5105
   1419.67978      -8.1632      -5.8069    1419.67978      -8.1632      -5.8069
   1419.66452      -7.7809      -5.6103    1419.66452      -7.7809      -5.6103
   1419.64926      -8.2914      -5.3508    1419.64926      -8.2914      -5.3508
   1419.63400      -8.0560      -5.5849    1419.63400      -8.0560      -5.5849
   1419.61874      -7.7040      -5.7869    1419.61874      -7.7040      -5.7869
   1419.60348      -8.4214      -6.4331    1419.60348      -8.4214      -6.4331
   1419.58822      -7.9512      -6.2208    1419.58822      -7.9512      -6.2208
   1419.57296      -7.5779      -5.6465    1419.57296      -7.5779      -5.6465
   1419.55771      -8.4838      -5.6258    1419.55771      -8.4838      -5.6258
   1419.54245      -7.5718      -5.0743    1419.54245      -7.5718      -5.0743
   1419.52719      -8.0360      -5.6778    1419.52719      -8.0360      -5.6778
   1419.51193      -8.1604      -4.7768    1419.51193      -8.1604      -4.7768
   1419.49667      -8.0929      -4.8719    1419.49667      -8.0929      -4.8719
   1419.48141      -7.7224      -5.1754    1419.48141      -7.7224      -5.1754
   1419.46615      -7.6643      -5.3389    1419.46615      -7.6643      -5.3389
   1419.45089      -7.6500      -5.7679    1419.45089      -7.6500      -5.7679
   1419.43563      -8.0051      -4.7705    1419.43563      -8.0051      -4.7705
   1419.42038      -7.9451      -5.2696    1419.42038      -7.9451      -5.2696
   1419.40512      -7.8139      -5.3280    1419.40512      -7.8139      -5.3280
   1419.38986      -7.8781      -5.9588    1419.38986      -7.8781      -5.9588
   1419.37460      -7.4069      -5.7063    1419.37460      -7.4069      -5.7063
   1419.35934      -7.1254      -5.4005    1419.35934      -7.1254      -5.4005
   1419.34408      -7.7522      -4.9739    1419.34408      -7.7522      -4.9739
   1419.32882      -7.5008      -5.7199    1419.32882      -7.5008      -5.7199
   1419.31356      -8.2245      -5.3412    1419.31356      -8.2245      -5.3412
   1419.29831      -7.9653      -5.3596    1419.29831      -7.9653      -5.3596
   1419.28305      -7.6760      -5.3470    1419.28305      -7.6760      -5.3470
   1419.26779      -7.7952      -5.6325    1419.26779      -7.7952      -5.6325
   1419.25253      -8.5612      -5.3606    1419.25253      -8.5612      -5.3606
   1419.23727      -8.4751      -5.0388    1419.23727      -8.4751      -5.0388
   1419.22201      -8.1412      -5.7723    1419.22201      -8.1412      -5.7723
   1419.20675      -7.7068      -5.3143    1419.20675      -7.7068      -5.3143
   1419.19149      -8.3372      -5.5394    1419.19149      -8.3372      -5.5394
   1419.17624      -7.7543      -5.1921    1419.17624      -7.7543      -5.1921
   1419.16098      -7.4011      -5.9439    1419.16098      -7.4011      -5.9439
   1419.14572      -8.2233      -6.4651    1419.14572      -8.2233      -6.4651
   1419.13046      -7.4733      -5.9051    1419.13046      -7.4733      -5.9051
   1419.11520      -8.2510      -6.5231    1419.11520      -8.2510      -6.5231
   1419.09994      -7.3055      -5.6731    1419.09994      -7.3055      -5.6731
   1419.08468      -8.3023      -5.5447    1419.08468      -8.3023      -5.5447
   1419.06942      -7.7803      -5.2206    1419.06942      -7.7803      -5.2206
   1419.05417      -7.6452      -5.1852    1419.05417      -7.6452      -5.1852
   1419.03891      -7.3720      -6.1161    1419.03891      -7.3720      -6.1161
   1419.02365      -7.2860      -6.3446    1419.02365      -7.2860      -6.3446
   1419.00839      -7.0422      -5.3454    1419.00839      -7.0422      -5.3454
   1418.99313      -7.5928      -5.6312    1418.99313      -7.5928      -5.6312
   1418.97787      -6.9239      -6.0711    1418.97787      -6.9239      -6.0711
   1418.96261      -7.7267      -5.3755    1418.96261      -7.7267      -5.3755
   1418.94735      -7.7519      -5.8497    1418.94735      -7.7519      -5.8497
   1418.93209      -7.9239      -4.4900    1418.93209      -7.9239      -4.4900
   1418.91684      -6.5917      -4.7542    1418.91684      -6.5917      -4.7542
   1418.90158      -7.5549      -4.9261    1418.90158      -7.5549      -4.9261
   1418.88632      -7.7110      -5.8379    1418.88632      -7.7110      -5.8379
   1418.87106      -7.4309      -5.2824    1418.87106      -7.4309      -5.2824
   1418.85580      -8.2362      -5.6109    1418.85580      -8.2362      -5.6109
   1418.84054      -8.1371      -5.3862    1418.84054      -8.1371      -5.3862
   1418.82528      -7.8877      -5.1756    1418.82528      -7.8877      -5.1756
   1418.81002      -7.8853      -5.9958    1418.81002      -7.8853      -5.9958
   1418.79477      -7.1019      -5.9223    1418.79477      -7.1019      -5.9223
   1418.77951      -7.6010      -5.1003    1418.77951      -7.6010      -5.1003
   1418.76425      -7.8989      -5.4924    1418.76425      -7.8989      -5.4924
   1418.74899      -8.0097      -5.4353    1418.74899      -8.0097      -5.4353
   1418.73373      -7.8310      -5.7638    1418.73373      -7.8310      -5.7638
   1418.71847      -8.1896      -5.4042    1418.71847      -8.1896      -5.4042
   1418.70321      -7.9029      -6.1532    1418.70321      -7.9029      -6.1532
   1418.68795      -7.7828      -5.7535    1418.68795      -7.7828      -5.7535
   1418.67270      -7.2506      -6.4564    1418.67270      -7.2506      -6.4564
   1418.65744      -7.3473      -5.5454    1418.65744      -7.3473      -5.5454
   1418.64218      -6.8347      -5.4324    1418.64218      -6.8347      -5.4324
   1418.62692      -7.6551      -5.4805    1418.62692      -7.6551      -5.4805
   1418.61166      -8.0180      -6.0598    1418.61166      -8.0180      -6.0598
   1418.59640      -7.8763      -6.1483    1418.59640      -7.8763      -6.1483
   1418.58114      -7.6234      -6.4690    1418.58114      -7.6234      -6.4690
   1418.56588      -7.9987      -5.7190    1418.56588      -7.9987      -5.7190
   1418.55062      -7.1955      -6.2239    1418.55062      -7.1955      -6.2239
   1418.53537      -6.9645      -4.9806    1418.53537      -6.9645      -4.9806
   1418.52011      -8.7625      -5.9048    1418.52011      -8.7625      -5.9048
   1418.50485      -7.3445      -5.6436    1418.50485      -7.3445      -5.6436
   1418.48959      -7.4968      -4.9751    1418.48959      -7.4968      -4.9751
   1418.47433      -8.0760      -4.9596    1418.47433      -8.0760      -4.9596
   1418.45907      -7.4216      -6.6129    1418.45907      -7.4216      -6.6129
   1418.44381      -7.2448      -6.0634    1418.44381      -7.2448      -6.0634
   1418.42855      -7.2070      -5.4817    1418.42855      -7.2070      -5.4817
   1418.41330      -7.3605      -5.9815    1418.41330      -7.3605      -5.9815
   1418.39804      -8.1869      -5.9671    1418.39804      -8.1869      -5.9671
   1418.38278      -7.2757      -6.0624    1418.38278      -7.2757      -6.0624
   1418.36752      -7.0792      -5.0352    1418.36752      -7.0792      -5.0352
   1418.35226      -7.9804      -6.0995    1418.35226      -7.9804      -6.0995
   1418.33700      -7.4540      -5.9475    1418.33700      -7.4540      -5.9475
   1418.32174      -7.7900      -6.0279    1418.32174      -7.7900      -6.0279
   1418.30648      -7.0090      -5.6658    1418.30648      -7.0090      -5.6658
   1418.29123      -7.4707      -6.1464    1418.29123      -7.4707      -6.1464
   1418.27597      -7.1422      -6.6838    1418.27597      -7.1422      -6.6838
   1418.26071      -7.8861      -6.4339    1418.26071      -7.8861      -6.4339
   1418.24545      -8.1816      -5.9354    1418.24545      -8.1816      -5.9354
   1418.23019      -7.1924      -6.5012    1418.23019      -7.1924      -6.5012
   1418.21493      -8.0075      -5.6140    1418.21493      -8.0075      -5.6140
   1418.19967      -7.2204      -5.9374    1418.19967      -7.2204      -5.9374
   1418.18441      -8.4432      -6.4341    1418.18441      -8.4432      -6.4341
   1418.16916      -7.2491      -6.0008    1418.16916      -7.2491      -6.0008
   1418.15390      -7.7662      -6.6429    1418.15390      -7.7662      -6.6429
   1418.13864      -8.1511      -5.0929    1418.13864      -8.1511      -5.0929
   1418.12338      -7.6981      -5.4260    1418.12338      -7.6981      -5.4260
   1418.10812      -7.1361      -6.6837    1418.10812      -7.1361      -6.6837
   1418.09286      -8.3966      -6.2240    1418.09286      -8.3966      -6.2240
   1418.07760      -7.8276      -6.4285    1418.07760      -7.8276      -6.4285
   1418.06234      -8.2874      -7.0697    1418.06234      -8.2874      -7.0697
   1418.04708      -7.5949      -7.7793    1418.04708      -7.5949      -7.7793
   1418.03183      -7.6161      -6.4917    1418.03183      -7.6161      -6.4917
   1418.01657      -7.5044      -6.5235    1418.01657      -7.5044      -6.5235
   1418.00131      -7.5962      -6.0554    1418.00131      -7.5962      -6.0554
   1417.98605      -7.6356      -5.9423    1417.98605      -7.6356      -5.9423
   1417.97079      -7.1976      -7.0113    1417.97079      -7.1976      -7.0113
   1417.95553      -7.2128      -5.8506    1417.95553      -7.2128      -5.8506
   1417.94027      -7.7812      -6.0729    1417.94027      -7.7812      -6.0729
   1417.92501      -6.8230      -6.6162    1417.92501      -6.8230      -6.6162
   1417.90976      -7.9688      -6.2165    1417.90976      -7.9688      -6.2165
   1417.89450      -7.5734      -6.8296    1417.89450      -7.5734      -6.8296
   1417.87924      -8.0985      -6.3820    1417.87924      -8.0985      -6.3820
   1417.86398      -7.0068      -6.6590    1417.86398      -7.0068      -6.6590
   1417.84872      -8.1284      -7.0365    1417.84872      -8.1284      -7.0365
   1417.83346      -7.2441      -6.2702    1417.83346      -7.2441      -6.2702
   1417.81820      -7.4458      -6.9682    1417.81820      -7.4458      -6.9682
   1417.80294      -7.4364      -7.8836    1417.80294      -7.4364      -7.8836
   1417.78769      -8.2270      -7.0869    1417.78769      -8.2270      -7.0869
   1417.77243      -6.9587      -6.9407    1417.77243      -6.9587      -6.9407
   1417.75717      -7.7909      -6.5700    1417.75717      -7.7909      -6.5700
   1417.74191      -7.5866      -7.0233    1417.74191      -7.5866      -7.0233
   1417.72665      -7.7410      -6.0873    1417.72665      -7.7410      -6.0873
   1417.71139      -8.5826      -6.6352    1417.71139      -8.5826      -6.6352
   1417.69613      -7.7471      -6.5536    1417.69613      -7.7471      -6.5536
   1417.68087      -7.1315      -6.7515    1417.68087      -7.1315      -6.7515
   1417.66562      -7.4118      -6.2254    1417.66562      -7.4118      -6.2254
   1417.65036      -7.7326      -7.5952    1417.65036      -7.7326      -7.5952
   1417.63510      -7.7761      -6.2890    1417.63510      -7.7761      -6.2890
   1417.61984      -7.1732      -6.6405    1417.61984      -7.1732      -6.6405
   1417.60458      -7.6924      -5.9315    1417.60458      -7.6924      -5.9315
   1417.58932      -7.5451      -5.7688    1417.58932      -7.5451      -5.7688
   1417.57406      -7.1259      -6.9760    1417.57406      -7.1259      -6.9760
   1417.55880      -7.5068      -5.9125    1417.55880      -7.5068      -5.9125
   1417.54354      -8.1471      -6.9668    1417.54354      -8.1471      -6.9668
   1417.52829      -8.4346      -7.0394    1417.52829      -8.4346      -7.0394
   1417.51303      -7.4492      -6.9486    1417.51303      -7.4492      -6.9486
   1417.49777      -8.0868      -7.2580    1417.49777      -8.0868      -7.2580
   1417.48251      -8.1977      -7.2952    1417.48251      -8.1977      -7.2952
   1417.46725      -7.4248      -6.6886    1417.46725      -7.4248      -6.6886
   1417.45199      -7.7559      -6.7455    1417.45199      -7.7559      -6.7455
   1417.43673      -7.2311      -6.4395    1417.43673      -7.2311      -6.4395
   1417.42147      -7.3381      -7.5555    1417.42147      -7.3381      -7.5555
   1417.40622      -8.1961      -7.7439    1417.40622      -8.1961      -7.7439
